TimeStamp,Delta_TP9,Delta_AF7,Delta_AF8,Delta_TP10,Theta_TP9,Theta_AF7,Theta_AF8,Theta_TP10,Alpha_TP9,Alpha_AF7,Alpha_AF8,Alpha_TP10,Beta_TP9,Beta_AF7,Beta_AF8,Beta_TP10,Gamma_TP9,Gamma_AF7,Gamma_AF8,Gamma_TP10,RAW_TP9,RAW_AF7,RAW_AF8,RAW_TP10,AUX_RIGHT,Accelerometer_X,Accelerometer_Y,Accelerometer_Z,Gyro_X,Gyro_Y,Gyro_Z,HeadBandOn,HSI_TP9,HSI_AF7,HSI_AF8,HSI_TP10,Battery,Elements
2021-11-02 20:28:03.315,,,,,,,,,,,,,,,,,,,,,,,,,,,,,,,,,,,,,,/muse/elements/blink
2021-11-02 20:28:04.030,,,,,,,,,,,,,,,,,,,,,,,,,,,,,,,,,,,,,,/muse/elements/blink
2021-11-02 20:28:04.269,0,1.339770981757282,1.23885049283909,0,0,0.3960835109617424,0.2215821651350443,0,0,0.5788284139649804,0.3313838316878956,0,0,0.3962173995121342,0.1666428108891786,0,0,0.2384853703075988,-0.0681269993735462,0,889.6703296703297,810.6959706959707,844.9450549450549,998.4615384615385,692.6373626373627,-0.155823,0.040100,1.006653,3.177643,-8.979645,-4.777679,1,4,1,1,2,100.000000
2021-11-02 20:28:05.269,0,1.285059049480174,1.557952605635533,0,0,0.4197555778856837,0.5736856687566104,0,0,0.4602283107621222,0.08465112387301391,0,0,0.4956160787136557,0.3718225324658736,0,0,0.2907330652370889,0.1526623649454525,0,872.3443223443223,819.96336996337,809.0842490842491,901.3553113553114,794.981684981685,-0.142090,0.032776,1.009583,2.616882,-2.743988,-1.764526,1,2,1,1,2,100.000000
2021-11-02 20:28:06.259,,,,,,,,,,,,,,,,,,,,,,,,,,,,,,,,,,,,,,/muse/elements/blink
2021-11-02 20:28:06.269,0,0.1652426576959042,1.277740953513265,0,0,-0.04496418101618335,0.224642033811335,0,0,0.2211656903703219,0.3779826269399859,0,0,0.4715404447996104,0.4430930927558293,0,0,0.1494251931740771,0.1694738257908996,0,963.0036630036631,821.978021978022,870.7326007326008,947.2893772893773,549.5970695970697,-0.177002,-0.005859,0.957153,2.048645,0.829926,-6.669312,1,2,1,1,2,100.000000
2021-11-02 20:28:06.800,,,,,,,,,,,,,,,,,,,,,,,,,,,,,,,,,,,,,,/muse/elements/blink
2021-11-02 20:28:07.269,0,1.267768975697361,1.543667034099123,0,0,0.7299742143143294,0.4319293298924308,0,0,0.7270166733363675,0.6575399647334447,0,0,0.4900751174039657,0.460250768200797,0,0,0.2588947216052419,0.3258565262628902,0,935.6043956043957,785.3113553113553,832.0512820512821,821.1721611721612,701.0989010989011,-0.182861,-0.010986,0.991577,3.656158,-4.927216,-2.669220,1,2,1,1,2,100.000000
2021-11-02 20:28:08.269,0,1.241686512303042,1.038643200693357,0,0,0.6408931650723099,0.3089502084684769,0,0,0.7558729863601976,0.599159098435222,0,0,0.5604774415329355,0.5524786663707288,0,0,0.3884958910874013,0.3618286424240357,0,813.919413919414,807.8754578754579,824.7985347985348,825.6043956043957,617.2893772893773,-0.158081,-0.014465,0.996765,4.403839,-4.919739,-0.882263,1,2,1,1,2,100.000000
2021-11-02 20:28:09.269,0,0.3003503595557143,1.052688923340488,0,0,-0.04841603320707706,0.2982075696631716,0,0,0.2987697277454543,0.6599527016547875,0,0,0.4961561442166615,0.6122652784876667,0,0,0.2451446739940592,0.3197312025550286,0,464.1758241758242,815.1282051282052,858.6446886446887,373.919413919414,976.3003663003664,-0.152222,-0.040527,0.986450,-1.353302,-4.194489,-6.407623,1,2,1,1,2,100.000000
2021-11-02 20:28:09.492,,,,,,,,,,,,,,,,,,,,,,,,,,,,,,,,,,,,,,/muse/elements/blink
2021-11-02 20:28:10.019,,,,,,,,,,,,,,,,,,,,,,,,,,,,,,,,,,,,,,/muse/elements/jaw_clench
2021-11-02 20:28:10.109,,,,,,,,,,,,,,,,,,,,,,,,,,,,,,,,,,,,,,/muse/elements/blink
2021-11-02 20:28:10.273,0,1.251572863107609,1.383330917835316,0,0,0.8083878246155872,0.3945237812749188,0,0,0.4900413848449036,0.6354433615794179,0,0,0.4114065559814123,0.6589473108351871,0,0,0.3015006521880387,0.3448469855216215,0,350.1465201465202,807.8754578754579,806.2637362637363,1039.56043956044,834.8717948717949,-0.156128,-0.046509,1.003418,-1.532745,-5.757141,-2.631836,1,4,1,1,4,100.000000
2021-11-02 20:28:10.545,,,,,,,,,,,,,,,,,,,,,,,,,,,,,,,,,,,,,,/muse/elements/blink
2021-11-02 20:28:10.872,,,,,,,,,,,,,,,,,,,,,,,,,,,,,,,,,,,,,,/muse/elements/blink
2021-11-02 20:28:11.156,,,,,,,,,,,,,,,,,,,,,,,,,,,,,,,,,,,,,,/muse/elements/blink
2021-11-02 20:28:11.277,0,1.675868079427843,1.543986683171646,0,0,1.168501531631217,0.538339466526273,0,0,0.4092968737133377,0.6354433615794179,0,0,0.4358577813329721,0.6728500622025654,0,0,0.4860829600917126,0.4593891845557975,0,881.6117216117217,801.4285714285714,849.7802197802198,1230.14652014652,1301.062271062271,-0.229614,-0.094910,1.008362,-2.908478,-10.392761,-12.411499,1,4,4,1,4,100.000000
2021-11-02 20:28:11.657,,,,,,,,,,,,,,,,,,,,,,,,,,,,,,,,,,,,,,/muse/elements/blink
2021-11-02 20:28:11.941,,,,,,,,,,,,,,,,,,,,,,,,,,,,,,,,,,,,,,/muse/elements/blink
2021-11-02 20:28:12.179,,,,,,,,,,,,,,,,,,,,,,,,,,,,,,,,,,,,,,/muse/elements/blink
2021-11-02 20:28:12.280,0,1.675868079427843,1.543986683171646,0,0,1.168501531631217,0.538339466526273,0,0,0.4092968737133377,0.6354433615794179,0,0,0.4358577813329721,0.6728500622025654,0,0,0.4860829600917126,0.4593891845557975,0,1623.003663003663,788.5347985347986,771.6117216117216,1587.545787545788,759.5238095238095,-0.247742,-0.162903,0.932617,0.366364,-6.938477,-13.906860,1,4,1,1,4,100.000000
2021-11-02 20:28:12.790,,,,,,,,,,,,,,,,,,,,,,,,,,,,,,,,,,,,,,/muse/elements/blink
2021-11-02 20:28:13.269,0,1.675868079427843,1.543986683171646,0,0,1.168501531631217,0.538339466526273,0,0,0.4092968737133377,0.6354433615794179,0,0,0.4358577813329721,0.6728500622025654,0,0,0.4860829600917126,0.4593891845557975,0,846.1538461538462,743.8095238095239,840.1098901098901,1247.875457875458,812.3076923076924,-0.218323,-0.170837,0.968262,-12.919922,-1.398163,-11.903076,1,4,1,1,4,100.000000
2021-11-02 20:28:13.401,,,,,,,,,,,,,,,,,,,,,,,,,,,,,,,,,,,,,,/muse/elements/blink
2021-11-02 20:28:13.664,,,,,,,,,,,,,,,,,,,,,,,,,,,,,,,,,,,,,,/muse/elements/blink
2021-11-02 20:28:14.269,0,1.675868079427843,1.543986683171646,0,0,1.168501531631217,0.538339466526273,0,0,0.4092968737133377,0.6354433615794179,0,0,0.4358577813329721,0.6728500622025654,0,0,0.4860829600917126,0.4593891845557975,0,841.3186813186813,803.4432234432235,831.6483516483516,893.6996336996338,839.7069597069598,-0.191772,-0.175964,0.964783,-0.000000,-4.089813,-3.424377,1,2,1,1,4,100.000000
2021-11-02 20:28:14.276,,,,,,,,,,,,,,,,,,,,,,,,,,,,,,,,,,,,,,/muse/elements/blink
2021-11-02 20:28:14.515,,,,,,,,,,,,,,,,,,,,,,,,,,,,,,,,,,,,,,/muse/elements/blink
2021-11-02 20:28:14.892,,,,,,,,,,,,,,,,,,,,,,,,,,,,,,,,,,,,,,/muse/elements/blink
2021-11-02 20:28:15.278,0,0.6228093579325459,0.7686261538106568,0,0,0.2086531592951918,0.3788455323805912,0,0,0.6183239389276399,0.2914599100343019,0,0,0.9671280273353881,0.666582550001048,0,0,0.777978372325941,0.62770590376566,0,872.3443223443223,777.6556776556777,815.1282051282052,637.4358974358975,1095.970695970696,-0.118469,-0.355408,0.951538,-0.194397,-6.676788,-13.450775,1,4,1,1,4,100.000000
2021-11-02 20:28:15.313,,,,,,,,,,,,,,,,,,,,,,,,,,,,,,,,,,,,,,/muse/elements/blink
2021-11-02 20:28:15.929,,,,,,,,,,,,,,,,,,,,,,,,,,,,,,,,,,,,,,/muse/elements/blink
2021-11-02 20:28:16.108,,,,,,,,,,,,,,,,,,,,,,,,,,,,,,,,,,,,,,/muse/elements/jaw_clench
2021-11-02 20:28:16.269,0,0.6694443837879701,0.6961995292512115,0,0,0.2512136998726582,0.2572968942406836,0,0,0.7548545747542652,0.6515091302143884,0,0,0.9286184987075903,0.6420699491534526,0,0,0.6917024891718913,0.6892705770836945,0,1054.871794871795,789.3406593406594,845.3479853479854,723.2600732600732,754.2857142857143,-0.074585,-0.302368,0.960571,11.379700,-1.585083,0.777588,1,4,1,1,4,100.000000
2021-11-02 20:28:16.351,,,,,,,,,,,,,,,,,,,,,,,,,,,,,,,,,,,,,,/muse/elements/blink
2021-11-02 20:28:16.620,,,,,,,,,,,,,,,,,,,,,,,,,,,,,,,,,,,,,,/muse/elements/blink
2021-11-02 20:28:16.709,,,,,,,,,,,,,,,,,,,,,,,,,,,,,,,,,,,,,,/muse/elements/jaw_clench
2021-11-02 20:28:16.948,,,,,,,,,,,,,,,,,,,,,,,,,,,,,,,,,,,,,,/muse/elements/blink
2021-11-02 20:28:17.234,,,,,,,,,,,,,,,,,,,,,,,,,,,,,,,,,,,,,,/muse/elements/blink
2021-11-02 20:28:17.269,0,0.1571471810074918,1.176172778775916,0,0,-0.06170464377034953,0.2663849652597641,0,0,0.7219401470136482,0.767428719030802,0,0,1.382527379166105,0.9924500348702032,0,0,1.065626969897856,1.067865769019348,0,1624.212454212454,797.8021978021978,797.8021978021978,1257.545787545788,602.7838827838827,-0.049622,-0.342529,0.938293,2.699127,-2.474823,14.519958,1,4,1,1,4,100.000000
2021-11-02 20:28:17.670,,,,,,,,,,,,,,,,,,,,,,,,,,,,,,,,,,,,,,/muse/elements/blink
2021-11-02 20:28:18.272,0,0.175181184339322,1.133937927699532,0,0,0.01117810314228893,0.5190163081152156,0,0,0.628471705084702,0.8891591022206826,0,0,1.719401255372902,1.395231944269065,0,0,1.368662743138034,1.352528203293798,0,1195.494505494506,795.3846153846154,862.6739926739926,816.3369963369963,975.4945054945056,-0.086731,-0.132812,1.020935,10.071259,-4.179535,9.151611,1,4,1,1,4,100.000000
2021-11-02 20:28:18.372,,,,,,,,,,,,,,,,,,,,,,,,,,,,,,,,,,,,,,/muse/elements/blink
2021-11-02 20:28:18.569,,,,,,,,,,,,,,,,,,,,,,,,,,,,,,,,,,,,,,/muse/elements/blink
2021-11-02 20:28:18.960,,,,,,,,,,,,,,,,,,,,,,,,,,,,,,,,,,,,,,/muse/elements/blink
2021-11-02 20:28:19.267,,,,,,,,,,,,,,,,,,,,,,,,,,,,,,,,,,,,,,/muse/elements/blink
2021-11-02 20:28:19.279,0,0.6257821131901964,1.213910195019867,0,0,-0.1896040448660847,0.3853187143551018,0,0,0.2607667787751893,0.7677508542518292,0,0,1.492418069620945,1.45687190747704,0,0,1.080311904075452,1.363737836866597,0,817.948717948718,796.1904761904763,811.0989010989011,1185.421245421245,740.1831501831502,-0.099182,-0.080872,1.001343,5.009460,-7.349701,-1.226196,1,4,1,1,4,100.000000
2021-11-02 20:28:19.683,,,,,,,,,,,,,,,,,,,,,,,,,,,,,,,,,,,,,,/muse/elements/jaw_clench
2021-11-02 20:28:20.269,0,0.6774430587019672,1.105787737168071,0,0,0.3568094093512247,0.4232798408115549,0,0,0.4873025209909042,0.6493171722629587,0,0,1.209263042785036,1.189644821704713,0,0,1.089146151030589,1.244268006811682,0,952.9304029304029,817.1428571428571,813.5164835164835,946.0805860805862,868.7179487179487,-0.171814,-0.142639,0.987488,10.646973,-7.551575,1.973877,1,2,1,1,2,100.000000
2021-11-02 20:28:20.712,,,,,,,,,,,,,,,,,,,,,,,,,,,,,,,,,,,,,,/muse/elements/blink
2021-11-02 20:28:21.215,,,,,,,,,,,,,,,,,,,,,,,,,,,,,,,,,,,,,,/muse/elements/blink
2021-11-02 20:28:21.271,0,0.4716482864662625,0.7383175043847039,0,0,0.3241145343735881,0.2101339043297299,0,0,0.5471238723652647,0.6678948437243252,0,0,1.09949491411851,1.103379603497428,0,0,1.102952913299102,0.9525077680058751,0,819.96336996337,821.1721611721612,805.8608058608058,867.1062271062272,681.3553113553114,-0.093445,-0.100098,0.998047,9.286194,-4.403839,-4.471130,1,2,1,1,2,100.000000
2021-11-02 20:28:21.827,,,,,,,,,,,,,,,,,,,,,,,,,,,,,,,,,,,,,,/muse/elements/blink
2021-11-02 20:28:21.827,,,,,,,,,,,,,,,,,,,,,,,,,,,,,,,,,,,,,,/muse/elements/jaw_clench
2021-11-02 20:28:22.269,0,1.266391750227957,1.359610462343182,0,0,0.6464817215492694,0.6814016166005005,0,0,0.9974762571383047,0.5522584078897855,0,0,1.185255748400924,0.975567463943196,0,0,0.9557708965838164,0.8843440706467043,0,1168.095238095238,819.1575091575091,815.5311355311355,1119.74358974359,783.2967032967033,-0.111084,-0.102783,0.998291,4.366455,-2.923431,-0.934601,1,2,1,1,2,100.000000
2021-11-02 20:28:22.901,,,,,,,,,,,,,,,,,,,,,,,,,,,,,,,,,,,,,,/muse/elements/jaw_clench
2021-11-02 20:28:23.269,0,1.322068861301394,1.432934082185723,0,0,0.7421017885431517,0.7764572556192402,0,0,1.005130060280325,0.7503939069411049,0,0,1.042670041307784,0.8711240085803441,0,0,0.7743823127728937,0.8042191737188622,0,876.7765567765568,840.5128205128206,816.7399267399268,850.1831501831502,738.5714285714286,-0.102478,-0.100220,1.002930,4.127197,-3.835602,-1.801910,1,2,1,1,2,100.000000
2021-11-02 20:28:23.341,,,,,,,,,,,,,,,,,,,,,,,,,,,,,,,,,,,,,,/muse/elements/blink
2021-11-02 20:28:23.341,,,,,,,,,,,,,,,,,,,,,,,,,,,,,,,,,,,,,,/muse/elements/jaw_clench
2021-11-02 20:28:23.846,,,,,,,,,,,,,,,,,,,,,,,,,,,,,,,,,,,,,,/muse/elements/blink
2021-11-02 20:28:24.275,0,1.474464549249396,1.441188665126399,0,0,1.001557097341844,0.9946148045339619,0,0,0.8840053239706259,1.04579987201832,0,0,0.9777119301364603,0.7391982492586341,0,0,0.9162062573788681,0.5117702827939499,0,859.4505494505495,818.7545787545788,802.6373626373627,862.6739926739926,678.1318681318681,-0.105042,-0.103455,1.003723,6.624451,-4.216919,-0.059814,1,2,1,1,2,100.000000
2021-11-02 20:28:24.462,,,,,,,,,,,,,,,,,,,,,,,,,,,,,,,,,,,,,,/muse/elements/blink
2021-11-02 20:28:24.879,,,,,,,,,,,,,,,,,,,,,,,,,,,,,,,,,,,,,,/muse/elements/blink
2021-11-02 20:28:25.165,,,,,,,,,,,,,,,,,,,,,,,,,,,,,,,,,,,,,,/muse/elements/blink
2021-11-02 20:28:25.270,0,1.181192118609604,1.117282146031198,0,0,0.5927195272688595,0.5748657840647229,0,0,0.7120492921428901,0.5840008417397189,0,0,0.8553689441600216,0.556393608390792,0,0,0.7811080273862715,0.3425428820118387,0,868.3150183150184,817.5457875457876,819.5604395604396,782.0879120879121,716.8131868131868,-0.128845,-0.087463,0.998169,5.921631,-2.803802,-1.106567,1,2,1,1,2,100.000000
2021-11-02 20:28:25.864,,,,,,,,,,,,,,,,,,,,,,,,,,,,,,,,,,,,,,/muse/elements/blink
2021-11-02 20:28:26.270,0,0.7692566449920354,1.377742430732912,0,0,0.06648419089896174,0.6649058899969832,0,0,0.357921693181609,0.2993473370112527,0,0,0.5162416503592837,0.540948735642524,0,0,0.3504835891118264,0.2204999338035082,0,624.5421245421246,805.4578754578755,828.8278388278388,775.2380952380953,712.3809523809524,-0.110779,-0.104309,1.010498,6.803894,-6.310425,-1.390686,1,2,1,1,2,100.000000
2021-11-02 20:28:26.891,,,,,,,,,,,,,,,,,,,,,,,,,,,,,,,,,,,,,,/muse/elements/blink
2021-11-02 20:28:27.272,0,0.588282951120583,1.126239974001882,0,0,-0.04255754732899768,0.3402874138647276,0,0,0.2045068828431871,0.3649454401038488,0,0,0.1824049729002847,0.3452123844957672,0,0,0.0268981733052234,0.07552519075263696,0,168.8278388278388,801.4285714285714,825.2014652014652,673.2967032967033,710.7692307692308,-0.157715,-0.078186,1.017944,6.968384,-4.560852,-3.222504,1,4,1,1,2,100.000000
2021-11-02 20:28:27.308,,,,,,,,,,,,,,,,,,,,,,,,,,,,,,,,,,,,,,/muse/elements/blink
2021-11-02 20:28:27.308,,,,,,,,,,,,,,,,,,,,,,,,,,,,,,,,,,,,,,/muse/elements/jaw_clench
2021-11-02 20:28:27.508,,,,,,,,,,,,,,,,,,,,,,,,,,,,,,,,,,,,,,/muse/elements/blink
2021-11-02 20:28:27.508,,,,,,,,,,,,,,,,,,,,,,,,,,,,,,,,,,,,,,/muse/elements/jaw_clench
2021-11-02 20:28:28.009,,,,,,,,,,,,,,,,,,,,,,,,,,,,,,,,,,,,,,/muse/elements/blink
2021-11-02 20:28:28.119,,,,,,,,,,,,,,,,,,,,,,,,,,,,,,,,,,,,,,/muse/elements/jaw_clench
2021-11-02 20:28:28.270,0,0.825207908158448,1.248376194494362,0,0,0.4127089525557913,0.64311896413877,0,0,0.4888339888807607,0.6641391614931347,0,0,0.1293995156328107,0.2170185998461004,0,0,0.1641138892432074,0.2145113858770267,0,1513.809523809524,815.1282051282052,870.7326007326008,1556.923076923077,981.5384615384615,-0.107910,-0.070923,0.995544,1.914062,-22.452850,2.579498,1,4,1,1,2,100.000000
2021-11-02 20:28:28.294,,,,,,,,,,,,,,,,,,,,,,,,,,,,,,,,,,,,,,/muse/elements/blink
2021-11-02 20:28:29.270,0,1.188497004015768,1.700647988399686,0,0,0.8499695064781558,1.090571530805547,0,0,0.8963225544474019,0.6460683946662528,0,0,0.4535011150601234,0.2793016518819477,0,0,0.6136431053422324,0.4068492971404015,0,505.2747252747253,824.3956043956044,890.8791208791209,342.4908424908425,1511.391941391941,-0.099548,0.004028,0.899292,8.777771,-70.932465,-46.879578,1,4,1,1,2,100.000000
2021-11-02 20:28:29.427,,,,,,,,,,,,,,,,,,,,,,,,,,,,,,,,,,,,,,/muse/elements/blink
2021-11-02 20:28:29.933,,,,,,,,,,,,,,,,,,,,,,,,,,,,,,,,,,,,,,/muse/elements/blink
2021-11-02 20:28:30.272,0,1.486416288426704,1.793697737363129,0,0,0.9513539178743964,1.004408706570118,0,0,0.6701379194182174,0.7217457509665083,0,0,0.9862197672098606,1.169585367113864,0,0,0.6978772021768509,1.068443651092331,0,1218.461538461539,802.6373626373627,817.5457875457876,740.1831501831502,922.3076923076924,-0.245850,0.023682,1.028564,-0.441132,-7.783356,-5.876770,1,4,1,1,2,100.000000
2021-11-02 20:28:30.370,,,,,,,,,,,,,,,,,,,,,,,,,,,,,,,,,,,,,,/muse/elements/blink
2021-11-02 20:28:30.547,,,,,,,,,,,,,,,,,,,,,,,,,,,,,,,,,,,,,,/muse/elements/jaw_clench
2021-11-02 20:28:30.635,,,,,,,,,,,,,,,,,,,,,,,,,,,,,,,,,,,,,,/muse/elements/blink
2021-11-02 20:28:30.963,,,,,,,,,,,,,,,,,,,,,,,,,,,,,,,,,,,,,,/muse/elements/jaw_clench
2021-11-02 20:28:31.246,,,,,,,,,,,,,,,,,,,,,,,,,,,,,,,,,,,,,,/muse/elements/blink
2021-11-02 20:28:31.269,0,1.307528486768688,1.403639232257455,0,0,0.622771760879737,0.711009539954894,0,0,0.6280562324949907,0.8245972142753704,0,0,0.7728680229402529,1.186024445726869,0,0,0.4770572136236204,1.107277947562808,0,741.7948717948718,802.6373626373627,807.0695970695971,651.5384615384615,792.5641025641025,-0.104980,-0.158081,0.985901,2.265472,-6.116028,-2.145844,1,4,1,1,2,100.000000
2021-11-02 20:28:31.335,,,,,,,,,,,,,,,,,,,,,,,,,,,,,,,,,,,,,,/muse/elements/jaw_clench
2021-11-02 20:28:31.444,,,,,,,,,,,,,,,,,,,,,,,,,,,,,,,,,,,,,,/muse/elements/blink
2021-11-02 20:28:31.767,,,,,,,,,,,,,,,,,,,,,,,,,,,,,,,,,,,,,,/muse/elements/blink
2021-11-02 20:28:32.051,,,,,,,,,,,,,,,,,,,,,,,,,,,,,,,,,,,,,,/muse/elements/jaw_clench
2021-11-02 20:28:32.205,,,,,,,,,,,,,,,,,,,,,,,,,,,,,,,,,,,,,,/muse/elements/blink
2021-11-02 20:28:32.269,0,1.031145613018861,1.334024132948674,0,0,1.051976819835432,0.642989451288564,0,0,0.8115202367458286,0.768916750024782,0,0,0.8725643651764904,0.7240139256640891,0,0,0.73917246208305,0.8254301714524278,0,750.2564102564103,813.5164835164835,843.7362637362637,712.3809523809524,637.4358974358975,-0.079041,-0.091675,1.011719,5.114136,-5.704803,-3.887939,1,4,1,1,2,100.000000
2021-11-02 20:28:33.269,,,,,,,,,,,,,,,,,,,,,,,,,,,,,,,,,,,,,,/muse/elements/jaw_clench
2021-11-02 20:28:33.279,0,0.954577798172361,1.630841779297856,0,0,1.01421940780738,1.192629567770614,0,0,0.8748639860978042,0.7002780939056424,0,0,0.7607272508009426,0.6629460098600726,0,0,0.5941868450565596,0.5656342229241982,0,743.4065934065934,820.3663003663004,813.5164835164835,852.1978021978023,784.9084249084249,-0.099365,-0.071838,0.997009,7.028198,-4.620667,-4.044952,1,4,1,1,2,100.000000
2021-11-02 20:28:34.121,,,,,,,,,,,,,,,,,,,,,,,,,,,,,,,,,,,,,,/muse/elements/blink
2021-11-02 20:28:34.269,0,0.7617521281162219,1.567831909140427,0,0,0.6501499227638806,1.056661948064285,0,0,0.7259837322350035,0.896685295271978,0,0,0.6318714323377902,0.7980844195981247,0,0,0.6254951592762396,0.6325134030842176,0,817.5457875457876,810.6959706959707,806.6666666666667,905.3846153846154,678.5347985347986,-0.123169,-0.070984,1.017395,3.461761,-3.858032,-2.429962,1,2,1,1,2,100.000000
2021-11-02 20:28:35.100,,,,,,,,,,,,,,,,,,,,,,,,,,,,,,,,,,,,,,/muse/elements/blink
2021-11-02 20:28:35.269,0,0.07798408947074163,0.5733736522772482,0,0,-0.06231345253122712,0.1059809444166259,0,0,0.3431989946617203,0.5027742212638754,0,0,0.444486860204723,0.5988012065987806,0,0,0.2647539049057718,0.3043143599093571,0,726.8864468864469,806.6666666666667,796.1904761904763,820.3663003663004,714.7985347985348,-0.157349,-0.063232,0.995911,2.145844,-5.510406,-5.764618,1,2,1,1,2,100.000000
2021-11-02 20:28:36.269,0,0.02936926163341274,0.3391122284535559,1.360617537713743,0,-0.1435800672455186,-0.1110782668410299,1.272097256866813,0,0.1258701517656684,0.3423129100549193,0.7888952066155498,0,0.06717303572441712,-0.003744342564254306,1.075496050514618,0,-0.2830068867914205,-0.1186116576301157,0.9417585527478545,808.2783882783883,804.6520146520147,805.4578754578755,803.8461538461539,788.9377289377289,-0.179077,-0.079102,0.999756,3.282318,-5.084229,-3.633728,1,2,1,1,1,100.000000
2021-11-02 20:28:37.269,0,0.08291936287236151,-0.145912633739737,1.442074842312042,0,-0.151591245615689,-0.2831788010112774,1.08163781674821,0,0.04673621229177843,0.1453499466555976,0.8290188900005429,0,0.08722292319135279,0.2474281389802589,1.048159355490304,0,-0.07143541337501215,-0.09332082232059082,0.9516184394898369,851.7948717948718,804.2490842490843,811.5018315018315,865.0915750915751,608.4249084249085,-0.171204,-0.059875,1.017273,13.607788,-2.444916,-9.645081,1,1,1,1,1,100.000000
2021-11-02 20:28:37.757,,,,,,,,,,,,,,,,,,,,,,,,,,,,,,,,,,,,,,/muse/elements/blink
2021-11-02 20:28:37.955,,,,,,,,,,,,,,,,,,,,,,,,,,,,,,,,,,,,,,/muse/elements/blink
2021-11-02 20:28:37.955,,,,,,,,,,,,,,,,,,,,,,,,,,,,,,,,,,,,,,/muse/elements/jaw_clench
2021-11-02 20:28:38.269,0,0.1602508795456016,0.1134971757292263,1.571638400966454,0,-0.2327156461805132,0.07277617839198328,0.9825306283697613,0,0.3713934606601824,0.4319866256112338,0.7008885864281412,0,0.2699910326980867,0.4226464667933226,1.145998523288289,0,0.1342245829231913,0.2094932827503279,1.130234263725058,711.1721611721612,811.9047619047619,812.7106227106227,774.8351648351648,458.1318681318681,-0.309937,0.031555,1.035339,13.099365,26.692200,5.114136,1,2,1,1,1,100.000000
2021-11-02 20:28:38.476,,,,,,,,,,,,,,,,,,,,,,,,,,,,,,,,,,,,,,/muse/elements/blink
2021-11-02 20:28:39.000,,,,,,,,,,,,,,,,,,,,,,,,,,,,,,,,,,,,,,/muse/elements/blink
2021-11-02 20:28:39.089,,,,,,,,,,,,,,,,,,,,,,,,,,,,,,,,,,,,,,/muse/elements/jaw_clench
2021-11-02 20:28:39.177,,,,,,,,,,,,,,,,,,,,,,,,,,,,,,,,,,,,,,/muse/elements/blink
2021-11-02 20:28:39.277,0,0.4360040295925305,0.3498139401936202,1.572898611866842,0,0.05591794882625346,0.1278698469641091,0.9249084165679281,0,0.2920093438314357,0.4248842475881755,0.4270215685788427,0,0.2736599094382341,0.4220934618090286,1.239081455601931,0,0.2780771487169555,0.4330096182382862,1.196243123284579,958.974358974359,818.7545787545788,855.0183150183151,403.7362637362638,533.4798534798535,-0.187744,0.246155,0.949463,29.623108,14.355469,22.348175,1,4,1,1,1,100.000000
2021-11-02 20:28:39.592,,,,,,,,,,,,,,,,,,,,,,,,,,,,,,,,,,,,,,/muse/elements/blink
2021-11-02 20:28:39.878,,,,,,,,,,,,,,,,,,,,,,,,,,,,,,,,,,,,,,/muse/elements/blink
2021-11-02 20:28:40.269,0,1.208457225653352,1.269264542967784,1.572898611866842,0,0.6316126062314823,0.5595515052598874,0.9249084165679281,0,0.5641834364016413,0.948008363854723,0.4270215685788427,0,0.7256976693745927,1.149520171196666,1.239081455601931,0,0.6134334682478932,1.164516330660927,1.196243123284579,1163.663003663004,823.1868131868132,806.2637362637363,1047.619047619048,790.1465201465202,-0.143066,0.262329,0.986755,5.914154,-6.205750,-4.104767,1,2,1,1,1,100.000000
2021-11-02 20:28:40.797,,,,,,,,,,,,,,,,,,,,,,,,,,,,,,,,,,,,,,/muse/elements/blink
2021-11-02 20:28:41.269,0,1.439147238527112,1.409756718360852,1.572898611866842,0,0.7863896934712773,0.897343145370029,0.9249084165679281,0,0.5214393157276275,0.9719699982829163,0.4270215685788427,0,1.035359985737375,1.059366791544681,1.239081455601931,0,0.7727317614794248,1.066202701129796,1.196243123284579,907.3992673992674,807.8754578754579,820.7692307692308,890.0732600732601,1007.728937728938,-0.162415,0.235779,0.966125,2.781372,-4.942169,0.284119,1,2,1,1,2,100.000000
2021-11-02 20:28:41.623,,,,,,,,,,,,,,,,,,,,,,,,,,,,,,,,,,,,,,/muse/elements/blink
2021-11-02 20:28:41.712,,,,,,,,,,,,,,,,,,,,,,,,,,,,,,,,,,,,,,/muse/elements/jaw_clench
2021-11-02 20:28:41.801,,,,,,,,,,,,,,,,,,,,,,,,,,,,,,,,,,,,,,/muse/elements/blink
2021-11-02 20:28:42.127,,,,,,,,,,,,,,,,,,,,,,,,,,,,,,,,,,,,,,/muse/elements/blink
2021-11-02 20:28:42.127,,,,,,,,,,,,,,,,,,,,,,,,,,,,,,,,,,,,,,/muse/elements/jaw_clench
2021-11-02 20:28:42.269,0,1.212413867442516,1.415875002363452,1.572898611866842,0,0.2130724916403013,1.130938364839381,0.9249084165679281,0,0.4113539422032351,0.9196246142615518,0.4270215685788427,0,0.9014555402963413,0.8208547172466979,1.239081455601931,0,0.7595646812932098,0.7418621121578283,1.196243123284579,862.2710622710623,641.8681318681319,786.9230769230769,897.3260073260074,811.0989010989011,-0.152893,0.203979,0.983765,-5.129089,-4.067383,11.678772,1,2,4,1,2,100.000000
2021-11-02 20:28:42.930,,,,,,,,,,,,,,,,,,,,,,,,,,,,,,,,,,,,,,/muse/elements/blink
2021-11-02 20:28:43.272,0,1.212413867442516,1.476589800367855,1.572898611866842,0,0.2130724916403013,1.16151567761805,0.9249084165679281,0,0.4113539422032351,0.8798547681226107,0.4270215685788427,0,0.9014555402963413,0.8555064015588195,1.239081455601931,0,0.7595646812932098,0.6266452388151162,1.196243123284579,740.989010989011,740.1831501831502,794.981684981685,864.2857142857143,663.2234432234433,-0.175964,0.195557,0.989380,11.843262,-1.854248,-13.832092,1,2,1,1,2,100.000000
2021-11-02 20:28:44.269,0,1.398495260980369,1.431310276082221,1.572898611866842,0,0.4525909568484255,0.7917872915081481,0.9249084165679281,0,0.1165282136041076,0.7731950958266373,0.4270215685788427,0,0.6256726059395479,0.5877872975905084,1.239081455601931,0,0.4031412922451879,0.3720023445471366,1.196243123284579,809.4871794871796,776.4468864468864,794.1758241758242,792.1611721611722,813.919413919414,-0.212891,0.172058,0.977173,3.730927,-5.121613,1.024323,1,2,1,1,2,100.000000
2021-11-02 20:28:44.848,,,,,,,,,,,,,,,,,,,,,,,,,,,,,,,,,,,,,,/muse/elements/jaw_clench
2021-11-02 20:28:45.002,,,,,,,,,,,,,,,,,,,,,,,,,,,,,,,,,,,,,,/muse/elements/blink
2021-11-02 20:28:45.277,0,1.737194616551004,1.430272995927101,1.572898611866842,0,1.217241628018003,0.8903292082336733,0.9249084165679281,0,0.7544038613300528,0.9802250233768,0.4270215685788427,0,0.5612939934917448,0.618933277653172,1.239081455601931,0,0.3112918426824445,0.7053027362201036,1.196243123284579,792.967032967033,763.1501831501831,803.4432234432235,806.2637362637363,733.7362637362637,-0.186584,0.173828,0.972473,3.274841,-3.760834,-2.235565,1,2,1,1,2,100.000000
2021-11-02 20:28:45.794,,,,,,,,,,,,,,,,,,,,,,,,,,,,,,,,,,,,,,/muse/elements/blink
2021-11-02 20:28:46.212,,,,,,,,,,,,,,,,,,,,,,,,,,,,,,,,,,,,,,/muse/elements/blink
2021-11-02 20:28:46.269,0,1.386276384564724,1.072200824867061,1.572898611866842,0,0.9563821966047532,0.6433993782258556,0.9249084165679281,0,0.7365103962605077,0.9620883258679667,0.4270215685788427,0,0.5281814649321154,0.7752482523333148,1.239081455601931,0,0.1417747355211676,0.9290067252321493,1.196243123284579,776.0439560439561,740.1831501831502,821.5750915750916,809.4871794871796,656.7765567765568,-0.185974,0.178223,0.963196,3.454285,-5.577698,-0.441132,1,2,1,1,2,100.000000
2021-11-02 20:28:47.270,0,1.553467038075243,0.7537182769429357,1.572898611866842,0,1.303394282850053,0.2850136372099502,0.9249084165679281,0,1.094227582980174,0.4449714730438489,0.4270215685788427,0,0.4724839663705144,0.3858830208625192,1.239081455601931,0,0.2843749796278974,0.06557821574366732,1.196243123284579,807.8754578754579,765.5677655677656,797.3992673992674,800.6227106227107,778.0586080586081,-0.186157,0.195618,0.966431,4.583282,-2.893524,0.239258,1,2,1,1,2,100.000000
2021-11-02 20:28:48.280,0,1.17347410193328,1.132385779826119,1.351250220096023,0,0.5808943013219842,0.8447507452504306,0.8538193733608702,0,0.8160611432371705,0.6485425139166001,0.7560541952096581,0,0.4472251323822808,0.5875652369072842,1.117193638690793,0,0.3337082027551923,0.2714268690369632,1.1360384704477,732.9304029304029,782.893772893773,817.948717948718,799.0109890109891,774.8351648351648,-0.199951,0.179504,0.974487,5.338440,-4.927216,-2.243042,1,1,1,1,1,100.000000
2021-11-02 20:28:48.423,,,,,,,,,,,,,,,,,,,,,,,,,,,,,,,,,,,,,,/muse/elements/blink
2021-11-02 20:28:49.269,0,1.398429861659823,1.216850993393045,1.345180052014306,0,0.9095123885242069,0.9209332861988681,0.6884518787366903,0,0.810563626899297,0.6224708541915294,0.5376530031341694,0,0.4736521807556353,0.628188225966555,1.095589617251008,0,0.2796918094700829,0.3820281867340941,1.164892168065647,763.5531135531136,778.8644688644689,819.96336996337,805.8608058608058,780.0732600732601,-0.197510,0.166687,0.970581,5.256195,-6.011353,-2.071075,1,1,1,1,1,100.000000
2021-11-02 20:28:49.621,,,,,,,,,,,,,,,,,,,,,,,,,,,,,,,,,,,,,,/muse/elements/blink
2021-11-02 20:28:50.269,0,1.425006922246141,1.509198782952457,1.345180052014306,0,0.9753339218152279,0.9251143121553261,0.6884518787366903,0,0.9950405987467914,0.9920207922336663,0.5376530031341694,0,0.5622992921081413,0.8888629513282787,1.095589617251008,0,0.2841872141128484,0.4083736694430901,1.164892168065647,728.0952380952381,785.7142857142858,840.1098901098901,821.5750915750916,751.4652014652015,-0.197266,0.184814,0.973999,4.074860,-6.138458,0.538330,1,1,1,1,1,100.000000
2021-11-02 20:28:51.268,,,,,,,,,,,,,,,,,,,,,,,,,,,,,,,,,,,,,,/muse/elements/blink
2021-11-02 20:28:51.279,0,1.290718088554867,1.480644181197445,1.345180052014306,0,1.010251106629602,0.6235124192558475,0.6884518787366903,0,0.9296961868778026,0.7757923637178495,0.5376530031341694,0,0.6654118372104046,0.7214591397328221,1.095589617251008,0,0.6318969242443198,0.7018314069819303,1.164892168065647,854.2124542124542,788.9377289377289,830.0366300366301,836.4835164835165,718.021978021978,-0.188354,0.139343,0.923462,1.091614,-0.792542,-5.652466,1,2,1,1,2,100.000000
2021-11-02 20:28:52.083,,,,,,,,,,,,,,,,,,,,,,,,,,,,,,,,,,,,,,/muse/elements/blink
2021-11-02 20:28:52.270,0,1.632510865652821,1.469748610376082,1.345180052014306,0,1.079963766767114,0.6863452616660316,0.6884518787366903,0,1.088092630857038,0.8421528632492959,0.5376530031341694,0,0.5807639516934852,0.5032385205994048,1.095589617251008,0,0.5195506472987159,0.6063321652972152,1.164892168065647,855.4212454212454,758.7179487179487,871.941391941392,824.7985347985348,664.0293040293041,-0.232727,0.199463,0.975647,-12.822723,5.674896,47.313232,1,2,1,1,2,100.000000
2021-11-02 20:28:53.095,,,,,,,,,,,,,,,,,,,,,,,,,,,,,,,,,,,,,,/muse/elements/blink
2021-11-02 20:28:53.270,0,1.448439293818055,1.284137698804954,1.345180052014306,0,0.7098973726860518,0.4718886571367634,0.6884518787366903,0,0.527473577235391,0.6214039419444344,0.5376530031341694,0,0.73041009792083,0.3687242005638516,1.095589617251008,0,0.5330396525508858,0.7209291144119387,1.164892168065647,1092.747252747253,804.2490842490843,803.040293040293,891.2820512820513,923.1135531135532,-0.237793,0.165710,0.885376,16.142426,-12.119904,-45.316925,1,2,1,1,2,100.000000
2021-11-02 20:28:53.820,,,,,,,,,,,,,,,,,,,,,,,,,,,,,,,,,,,,,,/muse/elements/blink
2021-11-02 20:28:54.270,0,1.32557114593686,1.070823629898553,1.345180052014306,0,0.5144816965673431,0.3279926653332885,0.6884518787366903,0,0.3535203771984471,0.5687339989704303,0.5376530031341694,0,0.8487185089886317,0.4528820631604167,1.095589617251008,0,0.5797122718014516,0.7812913416777695,1.164892168065647,763.5531135531136,805.0549450549451,809.8901098901099,797.3992673992674,772.8205128205128,-0.189087,0.179382,1.039368,4.994507,-13.637695,5.757141,1,2,1,1,2,100.000000
2021-11-02 20:28:55.269,0,0.934428234902848,1.006445323466631,1.345180052014306,0,0.3232646352919373,0.3490186366972596,0.6884518787366903,0,0.1928154405840422,0.3881152039172189,0.5376530031341694,0,0.214338261706544,0.07900082231686152,1.095589617251008,0,0.03082774413095318,0.05811640728280788,1.164892168065647,575.7875457875458,800.2197802197802,810.2930402930403,749.047619047619,746.2271062271062,-0.136902,0.212769,0.972168,12.553558,1.076660,-2.691650,1,4,1,1,2,100.000000
2021-11-02 20:28:55.439,,,,,,,,,,,,,,,,,,,,,,,,,,,,,,,,,,,,,,/muse/elements/jaw_clench
2021-11-02 20:28:56.056,,,,,,,,,,,,,,,,,,,,,,,,,,,,,,,,,,,,,,/muse/elements/blink
2021-11-02 20:28:56.270,0,0.01320846905489077,0.4217312072039909,1.345180052014306,0,0.1461853080095002,0.07849056739100552,0.6884518787366903,0,0.3275787692725832,0.6443533437145242,0.5376530031341694,0,0.4808520307796551,0.4697661729434899,1.095589617251008,0,0.2186648900519866,0.3777611449346394,1.164892168065647,1040.769230769231,798.2051282051282,788.5347985347986,758.3150183150184,718.021978021978,-0.108032,0.266846,0.991455,1.435547,-5.630035,-0.568237,1,2,1,1,2,100.000000
2021-11-02 20:28:57.283,0,0.2043613218587796,1.31273337134101,1.345180052014306,0,0.02372808711899469,1.006775278139702,0.6884518787366903,0,0.3014556127166443,0.8116345319269042,0.5376530031341694,0,0.7452700157573741,0.7944050496625783,1.095589617251008,0,0.5697376659666208,0.7805926225413931,1.164892168065647,763.956043956044,801.4285714285714,812.7106227106227,809.8901098901099,946.4835164835165,-0.124695,0.224121,0.976135,3.050537,-2.452393,-0.448608,1,2,1,1,2,100.000000
2021-11-02 20:28:57.644,,,,,,,,,,,,,,,,,,,,,,,,,,,,,,,,,,,,,,/muse/elements/blink
2021-11-02 20:28:58.269,0,0.2177859352881465,0.5952773673484125,1.345180052014306,0,0.05478485192365184,0.2038851117825043,0.6884518787366903,0,0.4107457851133552,0.6467085610189769,0.5376530031341694,0,0.7673029343502784,0.6316612495788055,1.095589617251008,0,0.7712226796420142,0.5214490547694293,1.164892168065647,770.4029304029305,796.1904761904763,809.8901098901099,826.8131868131868,811.0989010989011,-0.134583,0.233215,0.975098,2.616882,-4.912262,-0.471039,1,2,1,1,2,100.000000
2021-11-02 20:28:59.270,0,0.08782848629660633,0.3859339743209586,1.189061610279234,0,-0.2352013299548046,-0.01573346420907508,0.9096261215954163,0,0.4416975663745137,0.3693284009644735,1.045428033787801,0,0.5860711951231885,0.5885846379046726,1.283562922287827,0,0.5783319363164614,0.2669870169039426,1.182284117754557,783.6996336996338,808.2783882783883,814.3223443223443,842.1245421245421,723.2600732600732,-0.188171,0.206177,1.007080,3.132782,-1.203766,3.058014,1,1,1,1,1,100.000000
2021-11-02 20:29:00.276,0,1.477568008447419,0.3688266693147799,1.217272049871617,0,0.546103893184515,0.001144058687887185,0.9108566298200934,0,0.5224458550207211,1.139155589649157,1.045428033787801,0,0.4918223978536055,1.077559602561702,1.306203249015197,0,0.5494384446514001,1.065275185742492,1.141012350874689,886.0439560439561,806.2637362637363,816.3369963369963,846.959706959707,753.0769230769231,-0.170166,0.185486,0.987000,5.876770,-6.624451,-0.538330,1,1,1,1,1,100.000000
2021-11-02 20:29:01.020,,,,,,,,,,,,,,,,,,,,,,,,,,,,,,,,,,,,,,/muse/elements/blink
2021-11-02 20:29:01.270,0,1.750114007898054,1.61795525245065,1.239380707943984,0,0.8825461222614045,0.9175655610328578,0.8767079896300456,0,0.3478471090528278,0.7256200475043352,1.045428033787801,0,0.1576181790936525,0.3822446208837594,1.326060717731658,0,0.2525626050125216,0.1093996983174832,1.08388703952803,799.0109890109891,807.0695970695971,792.1611721611722,770.4029304029305,709.1575091575091,-0.169434,0.193604,0.985352,5.345917,-8.441315,-3.633728,1,1,1,1,1,100.000000
2021-11-02 20:29:02.270,0,0.7184254365023751,1.307028938436327,1.239380707943984,0,0.3936131665994342,0.8855389382558607,0.8767079896300456,0,0.1996852887829852,0.7643349139985471,1.045428033787801,0,0.2154464566381976,0.1183969642239535,1.326060717731658,0,0.005861269543628614,0.1843553939808726,1.08388703952803,742.6007326007326,801.025641025641,827.2161172161173,808.6813186813187,794.5787545787546,-0.131775,0.164429,0.991638,5.585175,-7.267456,-4.037476,1,2,1,1,2,100.000000
2021-11-02 20:29:02.513,,,,,,,,,,,,,,,,,,,,,,,,,,,,,,,,,,,,,,/muse/elements/blink
2021-11-02 20:29:03.269,0,0.3568906960028581,0.3997112878286063,1.239380707943984,0,0.01252851548529108,0.2679747894544694,0.8767079896300456,0,0.3430258139310868,0.5297119347254088,1.045428033787801,0,0.3420842284278914,0.4044198504289567,1.326060717731658,0,0.2034485155152776,0.5162581032053709,1.08388703952803,842.1245421245421,794.981684981685,809.0842490842491,790.5494505494506,816.3369963369963,-0.123901,0.214905,0.971069,6.198273,-5.166473,-1.151428,1,2,1,1,2,100.000000
2021-11-02 20:29:04.153,,,,,,,,,,,,,,,,,,,,,,,,,,,,,,,,,,,,,,/muse/elements/jaw_clench
2021-11-02 20:29:04.272,0,0.380419950039691,0.2143633128032139,0.8803941165425407,0,0.004088113206745843,0.3574012742531559,0.9222790537726033,0,0.3612418124055177,0.3382497045665702,1.194022893512321,0,0.2989952550221443,0.4508221531926132,1.176683960920467,0,0.1744402138663062,0.2690990691100982,1.006462326132332,832.8571428571429,817.1428571428571,807.0695970695971,806.2637362637363,687.8021978021978,-0.183594,0.149902,1.018127,5.869293,-5.704803,2.915955,1,1,1,1,1,100.000000
2021-11-02 20:29:05.270,0,0.1094364818181625,-0.2617321451307387,1.105217794532633,0,-0.1494272159112616,0.02277616253609226,1.045726855948363,0,0.4274580861765162,0.4762815282239802,1.269143758916725,0,0.3061764584663899,0.3174005985941908,1.194735890959513,0,0.1024765973390824,0.1058842956280429,1.060429371468607,948.0952380952381,805.8608058608058,815.1282051282052,821.1721611721612,653.1501831501831,-0.159302,0.188904,0.973145,2.886047,-5.256195,0.867310,1,1,1,1,1,100.000000
2021-11-02 20:29:05.718,,,,,,,,,,,,,,,,,,,,,,,,,,,,,,,,,,,,,,/muse/elements/blink
2021-11-02 20:29:06.283,0,1.708749811770266,1.450769002714874,1.303585497115799,0,1.081466113010049,0.9445374427537506,1.140914182369956,0,0.9973349291558556,1.010192999833053,1.260799545161005,0,0.3965141185130422,0.4515667514514733,1.213433790667335,0,0.2307363226346646,0.4082362440732639,1.130210982417495,819.5604395604396,801.025641025641,807.8754578754579,716.8131868131868,766.3736263736264,-0.132812,0.203613,0.977905,5.936584,-3.222504,-0.014954,1,1,1,1,1,100.000000
2021-11-02 20:29:06.599,,,,,,,,,,,,,,,,,,,,,,,,,,,,,,,,,,,,,,/muse/elements/jaw_clench
2021-11-02 20:29:07.217,,,,,,,,,,,,,,,,,,,,,,,,,,,,,,,,,,,,,,/muse/elements/jaw_clench
2021-11-02 20:29:07.270,0,1.708555686039783,1.464562094639039,1.303585497115799,0,1.089430441905668,0.9553536650257475,1.140914182369956,0,0.9967641293601839,1.00005072981186,1.260799545161005,0,0.2414442625734795,0.4604022564737543,1.213433790667335,0,0.3199852750016557,0.325181418979782,1.130210982417495,847.7655677655678,828.8278388278388,791.3553113553114,805.8608058608058,575.7875457875458,-0.141296,0.205444,0.974121,9.286194,-5.390778,-5.689850,1,1,1,1,1,100.000000
2021-11-02 20:29:07.397,,,,,,,,,,,,,,,,,,,,,,,,,,,,,,,,,,,,,,/muse/elements/jaw_clench
2021-11-02 20:29:08.270,0,1.604088104759712,1.660393041685125,1.303585497115799,0,0.9450886131495843,0.9865469960478096,1.140914182369956,0,0.5172499017627347,0.8383459900878734,1.260799545161005,0,0.4119338002853021,0.4318729929234228,1.213433790667335,0,0.3132266397618387,0.1137222159517191,1.130210982417495,701.9047619047619,802.2344322344322,806.6666666666667,655.1648351648352,768.3882783882784,-0.128113,0.172119,0.967590,0.590668,-0.695343,-2.983246,1,2,1,1,2,100.000000
2021-11-02 20:29:08.426,,,,,,,,,,,,,,,,,,,,,,,,,,,,,,,,,,,,,,/muse/elements/blink
2021-11-02 20:29:09.042,,,,,,,,,,,,,,,,,,,,,,,,,,,,,,,,,,,,,,/muse/elements/blink
2021-11-02 20:29:09.272,0,1.144744336512944,1.252628752895393,1.303585497115799,0,0.6114034422788484,0.6358618488527885,1.140914182369956,0,0.59051828229165,0.6775682464186858,1.260799545161005,0,0.5609854901572963,0.6606787778102563,1.213433790667335,0,0.4303961729990456,0.1670399970176477,1.130210982417495,755.8974358974359,870.7326007326008,752.2710622710623,785.7142857142858,712.3809523809524,-0.175842,0.153015,0.990295,4.613190,-4.284210,-3.521576,1,2,1,1,2,100.000000
2021-11-02 20:29:09.459,,,,,,,,,,,,,,,,,,,,,,,,,,,,,,,,,,,,,,/muse/elements/blink
2021-11-02 20:29:10.267,,,,,,,,,,,,,,,,,,,,,,,,,,,,,,,,,,,,,,/muse/elements/blink
2021-11-02 20:29:10.280,0,0.6774931014760091,1.072856350859164,1.303585497115799,0,0.4927366681998137,0.7446711868800362,1.140914182369956,0,0.5673825530428229,0.621788455317546,1.260799545161005,0,0.7096847761245931,0.5068058945662833,1.213433790667335,0,0.6519722698350034,0.2801617076421723,1.130210982417495,924.3223443223443,808.2783882783883,809.8901098901099,815.5311355311355,703.919413919414,-0.249939,0.146179,1.057617,4.456177,9.002075,-4.665527,1,2,1,1,2,100.000000
2021-11-02 20:29:10.770,,,,,,,,,,,,,,,,,,,,,,,,,,,,,,,,,,,,,,/muse/elements/blink
2021-11-02 20:29:10.967,,,,,,,,,,,,,,,,,,,,,,,,,,,,,,,,,,,,,,/muse/elements/jaw_clench
2021-11-02 20:29:11.186,,,,,,,,,,,,,,,,,,,,,,,,,,,,,,,,,,,,,,/muse/elements/blink
2021-11-02 20:29:11.270,0,0.6907673785441539,0.822299427460497,1.303585497115799,0,0.03058365237403424,0.4358588758374118,1.140914182369956,0,0.3569177698692739,0.5524594568070675,1.260799545161005,0,0.1150554230977424,0.2875006821412961,1.213433790667335,0,0.2957558726424256,0.1556147262620058,1.130210982417495,806.6666666666667,807.4725274725275,812.3076923076924,871.941391941392,748.6446886446887,-0.097351,0.191284,0.980164,7.962799,-5.405731,-2.557068,1,2,1,1,2,100.000000
2021-11-02 20:29:11.471,,,,,,,,,,,,,,,,,,,,,,,,,,,,,,,,,,,,,,/muse/elements/jaw_clench
2021-11-02 20:29:11.670,,,,,,,,,,,,,,,,,,,,,,,,,,,,,,,,,,,,,,/muse/elements/blink
2021-11-02 20:29:11.670,,,,,,,,,,,,,,,,,,,,,,,,,,,,,,,,,,,,,,/muse/elements/jaw_clench
2021-11-02 20:29:12.090,,,,,,,,,,,,,,,,,,,,,,,,,,,,,,,,,,,,,,/muse/elements/jaw_clench
2021-11-02 20:29:12.267,,,,,,,,,,,,,,,,,,,,,,,,,,,,,,,,,,,,,,/muse/elements/blink
2021-11-02 20:29:12.277,0,0.6409923873806659,1.166184249972141,1.303585497115799,0,0.04219940358040355,0.3308990307093276,1.140914182369956,0,0.7033371980315219,1.30759523540301,1.260799545161005,0,0.5137824115318775,1.020937804157544,1.213433790667335,0,0.595535746528983,0.5187327759008803,1.130210982417495,784.1025641025641,820.7692307692308,875.5677655677656,898.5347985347986,974.6886446886447,-0.151489,0.183899,0.901123,10.983429,-38.699951,32.546539,1,4,1,1,2,100.000000
2021-11-02 20:29:12.598,,,,,,,,,,,,,,,,,,,,,,,,,,,,,,,,,,,,,,/muse/elements/blink
2021-11-02 20:29:13.124,,,,,,,,,,,,,,,,,,,,,,,,,,,,,,,,,,,,,,/muse/elements/blink
2021-11-02 20:29:13.270,0,0.5863454854051641,1.491795264597811,1.303585497115799,0,0.01993443745996216,0.6243968505506418,1.140914182369956,0,0.6941308683284594,1.30759523540301,1.260799545161005,0,0.7348868667081881,1.373470244491133,1.213433790667335,0,0.6044447585369711,0.7618484844303768,1.130210982417495,815.934065934066,823.1868131868132,807.8754578754579,852.1978021978023,704.3223443223443,-0.154724,0.242859,0.945801,8.493652,-7.566528,-1.263580,1,2,1,1,2,100.000000
2021-11-02 20:29:13.302,,,,,,,,,,,,,,,,,,,,,,,,,,,,,,,,,,,,,,/muse/elements/jaw_clench
2021-11-02 20:29:14.001,,,,,,,,,,,,,,,,,,,,,,,,,,,,,,,,,,,,,,/muse/elements/blink
2021-11-02 20:29:14.240,,,,,,,,,,,,,,,,,,,,,,,,,,,,,,,,,,,,,,/muse/elements/jaw_clench
2021-11-02 20:29:14.271,0,0.2277492078006927,1.141792008163759,1.303585497115799,0,-0.02289012998227967,0.5317864882430574,1.140914182369956,0,0.6180211756896135,0.5195662171340788,1.260799545161005,0,0.7474157924000975,0.7327933087127698,1.213433790667335,0,0.5683974875274331,0.6189715634685515,1.130210982417495,730.9157509157509,805.4578754578755,796.5934065934066,802.6373626373627,817.5457875457876,-0.220520,0.213928,0.973755,6.041260,4.979553,4.919739,1,2,1,1,2,100.000000
2021-11-02 20:29:14.701,,,,,,,,,,,,,,,,,,,,,,,,,,,,,,,,,,,,,,/muse/elements/blink
2021-11-02 20:29:15.223,,,,,,,,,,,,,,,,,,,,,,,,,,,,,,,,,,,,,,/muse/elements/blink
2021-11-02 20:29:15.280,0,0.2277492078006927,1.071387103087648,1.303585497115799,0,-0.02289012998227967,0.5404925016892665,1.140914182369956,0,0.6180211756896135,0.459592765365606,1.260799545161005,0,0.7474157924000975,0.6105030720764931,1.213433790667335,0,0.5683974875274331,0.5998538465823922,1.130210982417495,898.9377289377289,780.0732600732601,799.0109890109891,848.5714285714286,655.1648351648352,-0.255920,0.270203,0.948425,21.480865,-1.121521,-24.135132,1,2,1,1,2,100.000000
2021-11-02 20:29:15.635,,,,,,,,,,,,,,,,,,,,,,,,,,,,,,,,,,,,,,/muse/elements/blink
2021-11-02 20:29:16.269,0,0.2277492078006927,1.071387103087648,1.303585497115799,0,-0.02289012998227967,0.5404925016892665,1.140914182369956,0,0.6180211756896135,0.459592765365606,1.260799545161005,0,0.7474157924000975,0.6105030720764931,1.213433790667335,0,0.5683974875274331,0.5998538465823922,1.130210982417495,756.7032967032967,802.6373626373627,799.8168498168499,782.0879120879121,709.1575091575091,-0.183411,0.266357,0.961487,5.084229,-2.400055,-1.188812,1,2,1,1,2,100.000000
2021-11-02 20:29:17.269,0,0.2425201362492454,0.2449232087959869,1.303585497115799,0,0.006346523600735302,0.04046825699271404,1.140914182369956,0,0.05781892812093239,-0.01217296980943263,1.260799545161005,0,0.01950241391064419,0.4047730843636664,1.213433790667335,0,-0.2186674621222858,0.2290103291116874,1.130210982417495,827.2161172161173,804.6520146520147,809.0842490842491,826.8131868131868,782.0879120879121,-0.179749,0.264465,0.961243,5.742188,-4.388885,-0.740204,1,2,1,1,2,100.000000
2021-11-02 20:29:17.471,,,,,,,,,,,,,,,,,,,,,,,,,,,,,,,,,,,,,,/muse/elements/jaw_clench
2021-11-02 20:29:17.758,,,,,,,,,,,,,,,,,,,,,,,,,,,,,,,,,,,,,,/muse/elements/jaw_clench
2021-11-02 20:29:18.274,0,0.5614645392833989,0.6876999474614657,1.303585497115799,0,0.7639083533199812,0.2613703436419951,1.140914182369956,0,0.454518100960806,0.703824881576703,1.260799545161005,0,0.7593768419439955,0.6222035010837097,1.213433790667335,0,0.8359934986434479,0.5814252184456973,1.130210982417495,817.1428571428571,799.8168498168499,810.2930402930403,867.5091575091575,751.0622710622711,-0.177734,0.269409,0.951904,4.164581,-3.237457,-2.474823,1,2,1,1,2,100.000000
2021-11-02 20:29:19.270,0,0.4577807582416744,0.4919234164088905,0.9746343448158348,0,0.6816065548919575,0.2602390886500344,0.668918368482855,0,0.5187017081231244,0.7895303970625891,0.9007606473286067,0,0.7964645963291582,0.5941010765344354,1.307403120937198,0,0.8101335350455522,0.5264943192340068,1.517765075543626,778.8644688644689,813.919413919414,811.5018315018315,790.952380952381,794.5787545787546,-0.173523,0.254700,0.964600,4.321594,-5.248718,-3.499146,1,1,1,1,1,100.000000
2021-11-02 20:29:20.093,,,,,,,,,,,,,,,,,,,,,,,,,,,,,,,,,,,,,,/muse/elements/blink
2021-11-02 20:29:20.270,0,0.8284015352027662,0.8911435709533321,0.8966953516143694,0,0.3872562191508624,0.6615570973044724,0.7572599564817299,0,0.541400624666904,0.7430206914291408,0.9082063838862714,0,0.4644691705631595,0.5495288293909142,1.281035021424522,0,0.341613827914258,0.1216604653860038,1.561412962079516,827.6190476190476,776.8498168498169,792.1611721611722,830.0366300366301,796.5934065934066,-0.150208,0.247803,0.971558,4.770203,-5.787048,-2.743988,1,1,1,1,1,100.000000
2021-11-02 20:29:21.276,0,1.01550220238907,0.6738892203570063,0.5350886778117769,0,0.2708652893739931,0.4938407795113549,0.5330892979105755,0,0.2455286462216412,0.6271402457566837,0.4852225508195554,0,0.4737357346323667,0.5667212004669997,1.345831017636747,0,0.397492411503056,0.282074956523741,1.474488181835602,651.1355311355312,862.2710622710623,778.4615384615385,778.4615384615385,688.6080586080586,-0.162537,0.240784,0.968933,4.957123,-5.487976,-2.886047,1,1,1,1,1,100.000000
2021-11-02 20:29:21.555,,,,,,,,,,,,,,,,,,,,,,,,,,,,,,,,,,,,,,/muse/elements/blink
2021-11-02 20:29:21.555,,,,,,,,,,,,,,,,,,,,,,,,,,,,,,,,,,,,,,/muse/elements/jaw_clench
2021-11-02 20:29:21.734,,,,,,,,,,,,,,,,,,,,,,,,,,,,,,,,,,,,,,/muse/elements/jaw_clench
2021-11-02 20:29:22.274,0,1.157637191186462,1.632454130839682,0.5350886778117769,0,0.2843825291914601,1.070645530591421,0.5330892979105755,0,0.4273332475535653,0.9138132599682262,0.4852225508195554,0,0.5208317588605604,0.6580946825247009,1.345831017636747,0,0.259363631892492,0.4815667603795451,1.474488181835602,757.5091575091575,800.2197802197802,810.6959706959707,826.4102564102565,700.2930402930403,-0.131897,0.239563,0.966553,4.942169,-8.000183,-0.807495,1,1,1,1,1,100.000000
2021-11-02 20:29:22.769,,,,,,,,,,,,,,,,,,,,,,,,,,,,,,,,,,,,,,/muse/elements/blink
2021-11-02 20:29:23.270,0,1.021376488811861,1.584738516607047,0.5350886778117769,0,0.1902934641899099,1.146859008459328,0.5330892979105755,0,0.3352632644302977,1.053794966065354,0.4852225508195554,0,0.694867732581655,0.6046867474760638,1.345831017636747,0,0.4949194308032877,0.5230923601905137,1.474488181835602,875.5677655677656,779.6703296703297,817.1428571428571,850.1831501831502,765.1648351648352,-0.185852,0.236023,0.958679,4.104767,-2.773895,-2.213135,1,2,1,1,2,100.000000
2021-11-02 20:29:24.281,0,1.000952355324431,1.417810989679716,0.5350886778117769,0,0.581443680340103,1.13343802675436,0.5330892979105755,0,0.5535933306680356,1.048520390835814,0.4852225508195554,0,0.2450365992399099,0.3214900819827076,1.345831017636747,0,-0.08537717043215101,0.3205012135074534,1.474488181835602,878.3882783882784,876.3736263736264,730.5128205128206,831.2454212454213,844.5421245421246,-0.179932,0.225098,0.969177,5.600128,-9.727325,-4.770203,1,2,1,1,2,100.000000
2021-11-02 20:29:25.270,0,1.684854592935911,1.551344241339697,1.483887425652719,0,1.109991845673083,0.9639948019126925,1.185418249078579,0,0.9271488367757311,0.8144154907152061,0.8557468722692879,0,0.1143475471716897,0.03872871986330278,1.075954172168907,0,-0.09416805331799526,-0.2282918574701185,1.029919618267326,865.8974358974359,800.2197802197802,801.8315018315019,805.4578754578755,672.0879120879121,-0.177246,0.217712,0.973938,4.157104,-6.205750,-0.792542,1,1,1,1,1,100.000000
2021-11-02 20:29:25.586,,,,,,,,,,,,,,,,,,,,,,,,,,,,,,,,,,,,,,/muse/elements/blink
2021-11-02 20:29:26.181,,,,,,,,,,,,,,,,,,,,,,,,,,,,,,,,,,,,,,/muse/elements/jaw_clench
2021-11-02 20:29:26.269,0,1.560851006456907,1.432452175398899,1.515768053505902,0,1.048824377964223,0.9960928153830906,1.086600305789128,0,1.021414843937648,0.8500025061805792,0.4861977420274756,0,0.3818585519930163,0.2297272528479071,1.115620467003643,0,0.2379313357656999,-0.1402441923168226,1.006807147901646,803.8461538461539,779.2673992673992,827.2161172161173,847.3626373626374,881.2087912087912,-0.186401,0.228516,0.974792,4.665527,-4.441223,3.865509,1,1,1,1,1,100.000000
2021-11-02 20:29:26.511,,,,,,,,,,,,,,,,,,,,,,,,,,,,,,,,,,,,,,/muse/elements/jaw_clench
2021-11-02 20:29:26.601,,,,,,,,,,,,,,,,,,,,,,,,,,,,,,,,,,,,,,/muse/elements/blink
2021-11-02 20:29:27.275,0,1.197555397544,1.165615202843032,1.462719068700951,0,0.9336817467698207,0.9654548996970099,0.8489263475304245,0,0.9382042171264945,0.6428739498305339,0.351264933854549,0,0.6163340327041416,0.3220290492009014,1.163406785268539,0,0.3819079245806012,0.06127778520814614,1.03009508463294,810.6959706959707,792.1611721611722,818.7545787545788,853.8095238095239,692.6373626373627,-0.167419,0.221802,0.977173,3.828125,-6.609497,-0.889740,1,1,1,1,1,100.000000
2021-11-02 20:29:27.727,,,,,,,,,,,,,,,,,,,,,,,,,,,,,,,,,,,,,,/muse/elements/jaw_clench
2021-11-02 20:29:28.270,0,1.110831661877891,1.25734623951908,1.462719068700951,0,0.4647848012282134,0.8481489728948735,0.8489263475304245,0,0.539061852539236,0.8034541414196233,0.351264933854549,0,0.5665681066829785,0.3882704406351919,1.163406785268539,0,0.340447326108903,0.3282656016265662,1.03009508463294,788.1318681318681,802.2344322344322,808.2783882783883,809.4871794871796,753.8827838827839,-0.171570,0.195923,0.973694,5.592651,-5.816956,-4.381409,1,2,1,1,2,100.000000
2021-11-02 20:29:29.237,,,,,,,,,,,,,,,,,,,,,,,,,,,,,,,,,,,,,,/muse/elements/blink
2021-11-02 20:29:29.270,0,1.063298987697846,1.054185019897051,1.462719068700951,0,0.4556788352309907,0.7317402009112661,0.8489263475304245,0,0.4974458076500377,0.7081094591858268,0.351264933854549,0,0.4248276415297433,0.3326006485428872,1.163406785268539,0,0.1757062456929389,0.1352393379265266,1.03009508463294,838.4981684981685,791.7582417582418,803.8461538461539,886.0439560439561,847.3626373626374,-0.212952,0.180969,0.979126,2.721558,-1.457977,-7.588959,1,2,1,1,2,100.000000
2021-11-02 20:29:30.270,0,0.9507976535785976,0.5160190627145129,1.462719068700951,0,-0.006509226733344156,0.1957323655695357,0.8489263475304245,0,0.3331002302361328,0.4659512589276754,0.351264933854549,0,0.2328399056395689,0.2483075064393263,1.163406785268539,0,0.2456758296367477,0.02277284254038414,1.03009508463294,774.0293040293041,796.5934065934066,806.2637362637363,811.0989010989011,662.014652014652,-0.206543,0.189148,0.977600,4.209442,-4.844971,0.471039,1,2,1,1,2,100.000000
2021-11-02 20:29:31.271,0,0.9473549285406407,0.6858604543624863,0.7066703063492084,0,0.542029769764546,0.2895794620184706,0.6475773859802264,0,0.7188884416991008,0.5246638409089194,1.060864049182977,0,0.4477623846369717,0.2207259750949434,1.247868107985077,0,0.4388898904022633,0.0277471802457796,1.516924011023662,807.4725274725275,807.8754578754579,805.8608058608058,754.2857142857143,757.9120879120879,-0.163330,0.209595,0.972412,3.536530,-6.295471,-1.360779,1,1,1,1,1,100.000000
2021-11-02 20:29:31.591,,,,,,,,,,,,,,,,,,,,,,,,,,,,,,,,,,,,,,/muse/elements/jaw_clench
2021-11-02 20:29:32.270,0,0.9038699364271739,0.8569723901705684,0.9451053188042411,0,0.5251726682324054,0.3591526222336987,0.6136629256189998,0,0.7058601891710606,0.2556359385684787,0.9505361484102678,0,0.309228150679005,0.08253113167361713,1.233520664712235,0,0.2095257238617036,0.005693463012248951,1.578398477444938,699.0842490842491,814.3223443223443,808.2783882783883,625.3479853479854,813.1135531135532,-0.210632,0.194580,0.957458,-1.368256,8.089905,3.072968,1,1,1,1,1,100.000000
2021-11-02 20:29:32.278,,,,,,,,,,,,,,,,,,,,,,,,,,,,,,,,,,,,,,/muse/elements/jaw_clench
2021-11-02 20:29:32.520,,,,,,,,,,,,,,,,,,,,,,,,,,,,,,,,,,,,,,/muse/elements/blink
2021-11-02 20:29:32.811,,,,,,,,,,,,,,,,,,,,,,,,,,,,,,,,,,,,,,/muse/elements/blink
2021-11-02 20:29:32.811,,,,,,,,,,,,,,,,,,,,,,,,,,,,,,,,,,,,,,/muse/elements/jaw_clench
2021-11-02 20:29:33.270,0,1.165240478476251,1.414704971936166,1.041293167122992,0,0.6708709122464785,0.8089017500574149,0.6660956357015893,0,0.4842912804169275,0.7650563393478371,0.6445569564150103,0,0.7487241095846543,0.541340271463029,1.206951484967794,0,0.2292703779849769,0.2306082505979498,1.546565901573595,960.5860805860806,803.8461538461539,799.0109890109891,745.8241758241759,804.2490842490843,-0.403381,0.195251,0.894958,3.865509,-2.041168,-2.056122,1,1,1,1,1,100.000000
2021-11-02 20:29:33.496,,,,,,,,,,,,,,,,,,,,,,,,,,,,,,,,,,,,,,/muse/elements/jaw_clench
2021-11-02 20:29:33.936,,,,,,,,,,,,,,,,,,,,,,,,,,,,,,,,,,,,,,/muse/elements/jaw_clench
2021-11-02 20:29:34.095,,,,,,,,,,,,,,,,,,,,,,,,,,,,,,,,,,,,,,/muse/elements/jaw_clench
2021-11-02 20:29:34.269,0,1.414790294798132,1.628744074405551,1.041293167122992,0,0.7787713081858947,0.9711672616490925,0.6660956357015893,0,0.42893269951666,0.7645497857058668,0.6445569564150103,0,0.5906308094642859,0.441062604074224,1.206951484967794,0,0.1036752203010514,0.1516220065453695,1.546565901573595,673.2967032967033,803.4432234432235,833.6630036630037,886.4468864468864,734.1391941391942,-0.375244,0.222534,0.976990,16.553650,-31.417542,0.538330,1,2,1,1,2,100.000000
2021-11-02 20:29:34.642,,,,,,,,,,,,,,,,,,,,,,,,,,,,,,,,,,,,,,/muse/elements/jaw_clench
2021-11-02 20:29:35.060,,,,,,,,,,,,,,,,,,,,,,,,,,,,,,,,,,,,,,/muse/elements/jaw_clench
2021-11-02 20:29:35.150,,,,,,,,,,,,,,,,,,,,,,,,,,,,,,,,,,,,,,/muse/elements/blink
2021-11-02 20:29:35.271,0,0.7327270577557689,0.801484717529772,1.041293167122992,0,0.2282642205082754,0.5165534176701452,0.6660956357015893,0,0.4452202969350811,0.7496770236588042,0.6445569564150103,0,0.4996054846726258,0.5610831984075227,1.206951484967794,0,0.3345204328177186,0.5364392625473132,1.546565901573595,723.2600732600732,789.3406593406594,812.7106227106227,831.2454212454213,943.2600732600733,-0.188843,0.240906,0.943665,2.325287,-0.186920,-13.181610,1,2,1,1,2,100.000000
2021-11-02 20:29:35.417,,,,,,,,,,,,,,,,,,,,,,,,,,,,,,,,,,,,,,/muse/elements/jaw_clench
2021-11-02 20:29:36.269,,,,,,,,,,,,,,,,,,,,,,,,,,,,,,,,,,,,,,/muse/elements/jaw_clench
2021-11-02 20:29:36.279,0,0.9753733092784069,1.529482621301327,1.041293167122992,0,0.433330600054127,1.096973759401705,0.6660956357015893,0,0.8015445343165866,1.004512685713314,0.6445569564150103,0,0.8895493716664422,0.8043667904734708,1.206951484967794,0,0.6575888745527945,0.7566418490679599,1.546565901573595,873.956043956044,788.5347985347986,821.978021978022,839.7069597069598,788.1318681318681,-0.155151,0.289001,0.960693,2.422485,-3.618774,9.989014,1,2,1,1,2,100.000000
2021-11-02 20:29:36.464,,,,,,,,,,,,,,,,,,,,,,,,,,,,,,,,,,,,,,/muse/elements/blink
2021-11-02 20:29:36.965,,,,,,,,,,,,,,,,,,,,,,,,,,,,,,,,,,,,,,/muse/elements/blink
2021-11-02 20:29:37.277,0,1.713589911976047,1.489267165448894,1.041293167122992,0,1.105181731542568,1.090639453932424,0.6660956357015893,0,1.028761142936508,0.9617675630058958,0.6445569564150103,0,0.9378230306967456,0.7845283647740749,1.206951484967794,0,0.7977806256922888,0.8613823450718932,1.546565901573595,701.0989010989011,789.7435897435897,819.5604395604396,769.5970695970697,844.9450549450549,-0.171570,0.265808,0.966919,4.201965,-0.403748,-3.289795,1,2,1,1,2,100.000000
2021-11-02 20:29:37.487,,,,,,,,,,,,,,,,,,,,,,,,,,,,,,,,,,,,,,/muse/elements/blink
2021-11-02 20:29:38.269,0,1.592500594905611,1.506487290489489,1.041293167122992,0,0.9860179864844384,0.9907207978383931,0.6660956357015893,0,0.8419924653530108,0.8305386203596665,0.6445569564150103,0,0.7595277476371108,0.496344552250047,1.206951484967794,0,0.5460565904635842,0.4109182908036856,1.546565901573595,802.2344322344322,778.0586080586081,801.025641025641,821.1721611721612,716.4102564102565,-0.172180,0.250610,0.959229,4.785156,-5.188904,-2.998199,1,2,1,1,2,100.000000
2021-11-02 20:29:39.275,0,0.5599038348175281,0.3145502170720493,1.041293167122992,0,0.1828578105960387,0.02708826778089575,0.6660956357015893,0,0.3656784911807504,0.240730327236299,0.6445569564150103,0,0.5582174599632586,0.2346581569179805,1.206951484967794,0,0.378638744099022,-0.159914171431582,1.546565901573595,901.7582417582418,777.2527472527473,799.0109890109891,855.0183150183151,740.5860805860806,-0.166809,0.240906,0.954590,5.263672,-5.293579,-1.128998,1,2,1,1,2,100.000000
2021-11-02 20:29:39.311,,,,,,,,,,,,,,,,,,,,,,,,,,,,,,,,,,,,,,/muse/elements/blink
2021-11-02 20:29:40.278,0,0.7262410032833186,1.094039914288881,1.041293167122992,0,0.1514518400715966,0.7492644729152405,0.6660956357015893,0,0.372972706014476,0.6228174914476402,0.6445569564150103,0,0.4209003342455041,0.2094011890616194,1.206951484967794,0,0.2368022495859896,0.1490610722416024,1.546565901573595,774.0293040293041,796.1904761904763,815.5311355311355,803.040293040293,827.6190476190476,-0.166016,0.227295,0.967529,3.536530,-2.938385,-2.041168,1,2,1,1,2,100.000000
2021-11-02 20:29:41.270,0,0.05456120707988704,0.4977293903596134,0.8743120676318801,0,-0.4108237725869305,0.1752539492030763,-0.01481224046947978,0,0.3861459339957374,0.5174091164756155,0.5479232452515648,0,0.4584524210907928,0.3353274687915701,1.16910027295168,0,0.2686633007312405,0.08418945510735774,1.138324222041778,806.2637362637363,800.6227106227107,810.2930402930403,786.9230769230769,742.1978021978023,-0.168579,0.222778,0.960327,3.880463,-4.418793,-3.327179,1,1,1,1,1,100.000000
2021-11-02 20:29:42.280,0,-0.07646786474160827,-0.02836499727404384,0.4985165343513823,0,-0.1987871039540227,-0.2058924901908513,0.4333197160674414,0,0.3043532452199013,0.26301151892988,0.6549658030582265,0,0.3002883560130874,0.1792012577155336,1.130793748713298,0,0.3373019226817325,-0.1023381393229797,1.061685662536121,805.8608058608058,809.4871794871796,808.2783882783883,804.2490842490843,832.0512820512821,-0.166382,0.222473,0.988159,3.813171,-3.327179,-1.233673,1,1,1,1,1,100.000000
2021-11-02 20:29:43.276,1.385363223812282,-0.04964712551152423,-0.006964428043930308,0.5101377611321568,0.65123327736374,-0.03322804449557327,-0.2551223484502927,0.4070971524742482,1.207001684240184,0.2155057880620676,0.2807751812052366,0.6538676980076065,1.27438771868338,0.2595695217842931,0.1538191605343455,1.121538666023818,1.270556767137822,0.3228734275601017,-0.1542718377944049,1.053216575183099,813.5164835164835,796.5934065934066,807.0695970695971,800.2197802197802,763.5531135531136,-0.143494,0.222656,0.958801,4.717865,-4.074860,-2.145844,1,1,1,1,1,100.000000
2021-11-02 20:29:44.270,1.319090346050778,-0.09774910834526356,0.3305656799625916,0.4276310055405311,0.9433499696186338,0.02763741900004741,0.1268031374155112,0.4141862286416857,1.27520649995624,0.1946214169823617,0.2459707515790459,0.8649259208815258,1.27517872528613,0.182353158089601,0.1155120255961577,1.04561391736472,1.375237818251443,0.1980715396788096,-0.1197316028589469,0.9324129746698764,836.4835164835165,797.3992673992674,798.2051282051282,813.1135531135532,826.007326007326,-0.162415,0.212341,0.963806,0.844879,-4.882355,-1.869202,1,1,1,1,1,100.000000
2021-11-02 20:29:44.809,,,,,,,,,,,,,,,,,,,,,,,,,,,,,,,,,,,,,,/muse/elements/blink
2021-11-02 20:29:45.270,1.292519815450932,0.8403966156093944,0.6428349329545464,0.5873659094400523,1.100605724114454,0.4461577649565477,0.4311593421571353,0.4752475120003736,1.062327491481381,0.4256388121492929,0.1966705167199237,0.8680653331981808,1.302702722795423,0.31128039024239,0.1568404626389066,0.9238011466718371,1.484329518953639,-0.01662603610927173,-0.1212236890014041,0.779884126122137,890.0732600732601,799.8168498168499,812.3076923076924,818.3516483516484,542.3443223443223,-0.154114,0.146057,0.920044,20.254669,-1.622467,-9.944153,1,1,1,1,1,100.000000
2021-11-02 20:29:46.025,,,,,,,,,,,,,,,,,,,,,,,,,,,,,,,,,,,,,,/muse/elements/blink
2021-11-02 20:29:46.269,1.292519815450932,0.9313025345208326,0.7298475183614113,0.7795353326570664,1.100605724114454,0.5997969763298552,0.533931838048478,0.5323359430249915,1.062327491481381,0.4878126569604987,0.2716111776889137,0.551873277398228,1.302702722795423,0.2654709994323161,0.1742051493984085,1.013223653230377,1.484329518953639,-0.00748933522251656,-0.04585768073320634,0.4646912019472816,761.941391941392,805.8608058608058,799.0109890109891,799.4139194139194,718.4249084249085,-0.079102,0.203613,0.957092,4.044952,-7.357178,9.002075,1,1,1,1,1,100.000000
2021-11-02 20:29:47.270,1.292519815450932,0.52573572376457,0.5808119678061879,0.7795353326570664,1.100605724114454,0.3242414084434316,0.2793481573718036,0.5323359430249915,1.062327491481381,0.5863341673067124,0.4489716957430075,0.551873277398228,1.302702722795423,0.2710349461146519,0.1239352784145004,1.013223653230377,1.484329518953639,0.01043995830571776,-0.2154086337020225,0.4646912019472816,886.0439560439561,817.1428571428571,789.7435897435897,773.2234432234433,760.7326007326008,-0.073303,0.196350,0.996155,4.979553,-1.712189,-1.054230,1,1,1,1,1,100.000000
2021-11-02 20:29:48.274,1.292519815450932,0.538130781386161,0.7060749116172931,0.7795353326570664,1.100605724114454,0.3065277994858239,0.3913095778402596,0.5323359430249915,1.062327491481381,0.5670880752324176,0.4209564269431436,0.551873277398228,1.302702722795423,0.4585161681748587,0.3198430319476817,1.013223653230377,1.484329518953639,0.04418144778382936,0.1478270903250512,0.4646912019472816,827.6190476190476,799.4139194139194,803.040293040293,812.3076923076924,722.8571428571429,-0.088867,0.199402,0.981262,1.973877,-5.076752,0.089722,1,2,1,1,2,100.000000
2021-11-02 20:29:49.270,1.292519815450932,1.151502079200454,1.051670546240631,1.273300273189643,1.100605724114454,0.545671671479843,0.6530082958980952,0.6417919377003248,1.062327491481381,0.7929926442546549,0.783118152944308,1.056262979443609,1.302702722795423,0.4839510902249067,0.3998208408556562,1.146889678699063,1.484329518953639,0.06848454858717024,0.1253672627691785,1.221357129098138,793.7728937728938,791.3553113553114,817.1428571428571,801.8315018315019,798.2051282051282,-0.107666,0.182983,0.983826,4.044952,-5.121613,-0.500946,1,1,1,1,1,100.000000
2021-11-02 20:29:50.276,1.292519815450932,1.342925277573038,1.141522524933111,0.7775456687279891,1.100605724114454,0.7287869982788507,0.6349609768876404,0.4189790301286925,1.062327491481381,0.95111657800926,0.8911003423544971,1.105988415645021,1.302702722795423,0.4661738821311518,0.3989787161783681,1.19522703913461,1.484329518953639,0.002901222427430064,0.002785388439568865,1.065287017670194,801.025641025641,795.3846153846154,810.2930402930403,831.2454212454213,790.952380952381,-0.088806,0.192566,0.988098,5.585175,-5.099182,-1.674805,1,1,1,1,1,100.000000
2021-11-02 20:29:50.975,,,,,,,,,,,,,,,,,,,,,,,,,,,,,,,,,,,,,,/muse/elements/blink
2021-11-02 20:29:51.278,1.292519815450932,1.237936196977581,1.146742953922549,0.9983985794167679,1.100605724114454,0.7231945941427909,0.7736199124822097,0.6044851683636995,1.062327491481381,0.8350363675436526,0.6844532198596472,0.9766496409393352,1.302702722795423,0.4689987642450745,0.3980281087605563,1.114430161433992,1.484329518953639,-0.07131680142808751,0.336853616431928,1.05642783796336,817.948717948718,805.8608058608058,819.1575091575091,807.4725274725275,780.8791208791209,-0.104919,0.195496,0.978516,3.514099,-4.979553,-3.401947,1,1,1,1,1,100.000000
2021-11-02 20:29:51.873,,,,,,,,,,,,,,,,,,,,,,,,,,,,,,,,,,,,,,/muse/elements/blink
2021-11-02 20:29:52.269,1.292519815450932,1.401786356010968,1.360064851537639,1.212139445723986,1.100605724114454,0.8104473127190603,1.005518583896766,0.805103805397551,1.062327491481381,0.3917931001411237,0.5628545108838571,0.7438535688765328,1.302702722795423,0.543120006836622,0.5480381138788876,1.068597089603916,1.484329518953639,0.2926352963137295,0.5337061532979029,1.205330607720593,824.7985347985348,805.8608058608058,810.6959706959707,815.5311355311355,745.4212454212454,-0.100403,0.190247,0.993103,5.674896,-4.538422,-2.078552,1,1,1,1,1,100.000000
2021-11-02 20:29:53.086,,,,,,,,,,,,,,,,,,,,,,,,,,,,,,,,,,,,,,/muse/elements/blink
2021-11-02 20:29:53.272,1.292519815450932,0.426668080279997,1.151907625703375,1.212139445723986,1.100605724114454,0.3634376057140602,0.943438922268347,0.805103805397551,1.062327491481381,0.3630675574735759,0.6003948149775599,0.7438535688765328,1.302702722795423,0.4004227621466654,0.4802993768070239,1.068597089603916,1.484329518953639,0.1466496612984401,0.2930957392147605,1.205330607720593,831.2454212454213,813.5164835164835,793.3699633699634,803.8461538461539,814.3223443223443,-0.150513,0.174866,0.977783,0.814972,-0.613098,-0.343933,1,1,1,1,1,100.000000
2021-11-02 20:29:54.126,,,,,,,,,,,,,,,,,,,,,,,,,,,,,,,,,,,,,,/muse/elements/blink
2021-11-02 20:29:54.270,1.292519815450932,0.7432905973383295,0.8706823390489018,1.212139445723986,1.100605724114454,0.4649766170080115,0.5484490375971293,0.805103805397551,1.062327491481381,0.7214838995563579,0.3744089080849541,0.7438535688765328,1.302702722795423,0.6733422329445687,0.7662197238724605,1.068597089603916,1.484329518953639,0.4649861879096983,0.4248704376266765,1.205330607720593,828.8278388278388,794.1758241758242,808.2783882783883,835.6776556776557,614.4688644688645,-0.245911,0.136108,0.940308,2.886047,-12.860107,-0.762634,1,2,1,1,2,100.000000
2021-11-02 20:29:55.142,,,,,,,,,,,,,,,,,,,,,,,,,,,,,,,,,,,,,,/muse/elements/blink
2021-11-02 20:29:55.270,1.292519815450932,1.76421101200198,1.310573899770642,1.212139445723986,1.100605724114454,1.282859135447869,0.7906775850597794,0.805103805397551,1.062327491481381,1.009826592861058,0.4641647402371736,0.7438535688765328,1.302702722795423,0.7209477990142398,0.8750983086065286,1.068597089603916,1.484329518953639,0.5075262990760127,0.5595889534299959,1.205330607720593,656.3736263736264,776.0439560439561,944.0659340659341,734.5421245421246,695.4578754578755,-0.268982,0.161499,0.969666,1.099091,1.061707,13.899384,1,2,1,1,2,100.000000
2021-11-02 20:29:55.426,,,,,,,,,,,,,,,,,,,,,,,,,,,,,,,,,,,,,,/muse/elements/blink
2021-11-02 20:29:56.270,1.292519815450932,1.818298261702576,1.310573899770642,1.212139445723986,1.100605724114454,1.000971177375592,0.7906775850597794,0.805103805397551,1.062327491481381,1.033294334170738,0.4641647402371736,0.7438535688765328,1.302702722795423,0.2186771362336908,0.8750983086065286,1.068597089603916,1.484329518953639,0.3645259176271077,0.5595889534299959,1.205330607720593,744.6153846153846,826.4102564102565,796.5934065934066,800.6227106227107,763.5531135531136,-0.243774,0.109009,0.970520,2.489777,-6.445007,-4.329071,1,2,1,1,2,100.000000
2021-11-02 20:29:56.759,,,,,,,,,,,,,,,,,,,,,,,,,,,,,,,,,,,,,,/muse/elements/blink
2021-11-02 20:29:57.272,1.292519815450932,1.552715035317412,1.356274830301711,1.212139445723986,1.100605724114454,0.8496383688828909,0.9240886423325823,0.805103805397551,1.062327491481381,0.8781906195053846,0.4468548606326326,0.7438535688765328,1.302702722795423,0.7212375552849867,0.9310787470397179,1.068597089603916,1.484329518953639,0.9474893337647402,0.8614058098843208,1.205330607720593,841.3186813186813,800.2197802197802,808.2783882783883,828.8278388278388,730.5128205128206,-0.150146,0.096436,1.006653,3.828125,-4.590759,0.074768,1,2,1,1,2,100.000000
2021-11-02 20:29:57.965,,,,,,,,,,,,,,,,,,,,,,,,,,,,,,,,,,,,,,/muse/elements/blink
2021-11-02 20:29:58.270,1.292519815450932,1.425381187452957,1.232107255329651,1.064272446919265,1.100605724114454,0.8085030960348195,0.7569656396180787,0.9952610482993114,1.062327491481381,0.8343505486539335,0.4812494069867478,1.030067170679658,1.302702722795423,0.6633791977010329,0.807142582218998,1.281077316965508,1.484329518953639,0.6445783262377985,0.7156871395997969,1.088432711901594,790.952380952381,794.1758241758242,801.4285714285714,774.8351648351648,665.6410256410256,-0.112122,0.174683,0.984802,4.725342,-5.353394,1.457977,1,2,1,1,2,100.000000
2021-11-02 20:29:59.274,0.8938565141952132,0.3299058571756991,-0.004227500973757514,0.841126052111329,0.8650092110780122,0.05396063327801729,-0.1533336453325409,0.8662849588059153,0.5819430284972252,0.4406653043400048,0.5172311888049654,1.131968447655769,1.354278000548504,0.5223854219765188,0.6458915482087315,1.287696945327073,1.251628622734373,0.3975612303555956,0.4674320639381885,1.080827570779155,792.5641025641025,798.6080586080586,803.040293040293,782.4908424908425,839.3040293040293,-0.103333,0.172913,0.987915,3.626251,-4.927216,-3.409424,1,1,1,1,1,100.000000
2021-11-02 20:30:00.270,0.7236950525733485,0.2219515999102921,-0.0863990098300496,0.05441162967976521,0.7672251011927731,-0.02240890772311662,-0.2851081022303365,0.6457554035986903,0.7943490617618987,0.5790478783572363,0.5146517826545229,1.167364638057736,1.412682730386087,0.5564659910007498,0.4958654268951011,1.034264998641117,1.337327270767438,0.4320033250814191,0.4247054078674911,1.216563871939135,794.5787545787546,798.6080586080586,804.6520146520147,789.3406593406594,745.4212454212454,-0.110046,0.167603,0.992249,4.216919,-5.794525,-0.687866,1,1,1,1,1,100.000000
2021-11-02 20:30:01.270,0.6626087669144284,-0.1156933542365802,-0.05992992503636707,0.2715655279591769,0.6344244449231846,-0.05684271836484489,-0.2702882411714286,0.5920707715232071,0.7963521731979847,0.6182335052559417,0.4094159736817333,1.070084932627008,1.376712130201454,0.3960052780944898,0.3332937529217414,1.060861260100404,1.440791194499276,0.39531835576479,0.2963601828428118,1.177050487715202,828.8278388278388,801.8315018315019,806.2637362637363,808.2783882783883,801.8315018315019,-0.153076,0.154419,0.974976,3.469238,-2.003784,-3.783264,1,1,1,1,1,100.000000
2021-11-02 20:30:02.270,0.8873428226580609,-0.02586910628687138,-0.0832808315716778,0.5250175412711289,0.5677886357664218,0.03879431350042502,-0.09865681679301673,0.4704618542513913,0.77383672102737,0.6115091457150149,0.08004776986335357,0.8352692072738352,1.383112878494569,0.387041659612028,0.399526708466352,1.019295276605357,1.453115645225543,0.1775819495266629,0.3353930631731849,1.042942839818368,798.6080586080586,803.8461538461539,806.6666666666667,810.2930402930403,952.5274725274726,-0.103210,0.162354,0.985229,4.373932,-4.493561,-2.773895,1,1,1,1,1,100.000000
2021-11-02 20:30:03.271,1.173108714168384,-0.2443395631999878,0.08084823291690614,0.6753628492207775,0.8645587709557943,-0.03976580945467909,-0.1065052525458401,0.5595994504374512,0.9340356056226884,0.4350704802224549,0.1990702593076958,0.8293479870826813,1.339055187142931,0.4177865262859111,0.4249828205516504,1.263147651608282,1.176953085896674,0.1773265057578616,0.2764130966015566,1.162785749433024,805.8608058608058,795.7875457875458,788.1318681318681,815.5311355311355,676.5201465201466,-0.108459,0.155396,0.979553,5.712280,-4.762726,-2.190704,1,1,1,1,1,100.000000
2021-11-02 20:30:04.270,1.04247675906056,0.2321023117286989,0.3529680819288152,0.712306398577343,0.574674544083433,0.0682885996475536,0.1249588045984674,0.5633238973022779,0.8540994143125359,0.6250826985536593,0.2778405824112004,0.7720331672872184,1.339398328260245,0.5393637047260976,0.4877354672217343,1.207906438660237,1.200711958692951,0.489891631070347,0.2252580534126558,1.065095113957532,770.4029304029305,803.4432234432235,801.4285714285714,840.1098901098901,724.0659340659341,-0.115906,0.166504,0.990723,5.233765,-4.209442,-6.759033,1,1,1,1,1,100.000000
2021-11-02 20:30:05.279,1.045981503021372,-0.01852244249555598,0.07757055993451935,-0.1113850749263263,0.5423387127182323,-0.1161348211635318,0.07146117758736183,-0.06228940039288015,0.7928700469896383,0.7537181244700638,0.2064487832040923,0.8273335189879528,1.333848165794448,0.7692102200596627,0.4767139132923008,1.06655081744433,1.241171106944339,0.6985356104752066,0.3703506725339003,1.049072110713437,790.1465201465202,796.996336996337,813.1135531135532,830.8424908424909,772.4175824175825,-0.121277,0.174866,0.991638,6.886139,-2.572021,3.267365,1,1,1,1,1,100.000000
2021-11-02 20:30:05.797,,,,,,,,,,,,,,,,,,,,,,,,,,,,,,,,,,,,,,/muse/elements/blink
2021-11-02 20:30:06.132,,,,,,,,,,,,,,,,,,,,,,,,,,,,,,,,,,,,,,/muse/elements/blink
2021-11-02 20:30:06.273,1.045981503021372,0.1920034007187157,1.01484767343112,-0.3519204540540063,0.5423387127182323,0.01593410308277339,0.7999296584062764,-0.002616786978439814,0.7928700469896383,0.7136498000445629,0.7278599594626786,0.8503097609352654,1.333848165794448,0.8306844260868855,0.6764195763220657,1.082661015058001,1.241171106944339,0.6818642003437202,0.4231532241074223,0.9950697044941423,790.952380952381,805.0549450549451,815.934065934066,817.948717948718,734.1391941391942,-0.140259,0.185425,0.983154,3.663635,-5.682373,-1.652374,1,1,1,1,1,100.000000
2021-11-02 20:30:07.272,1.045981503021372,0.3174987437019114,1.224597709209242,-0.05492910089439253,0.5423387127182323,0.008621984270652252,0.9680774103880073,0.2225170215101255,0.7928700469896383,0.3497288137163689,0.7797039000167902,0.6480390850860583,1.333848165794448,0.7860005208252713,0.7295941396751018,1.047242268395393,1.241171106944339,0.374957746934962,0.3779148930862683,1.074073162389174,828.4249084249085,799.0109890109891,810.2930402930403,792.1611721611722,841.7216117216118,-0.149597,0.178894,0.992126,2.729034,-3.461761,-1.637421,1,1,1,1,1,100.000000
2021-11-02 20:30:08.270,1.045981503021372,-0.07027526258573891,-0.2159144800900322,0.4614935626910831,0.5423387127182323,-0.03478994786070486,0.02445105974658891,0.470247694029116,0.7928700469896383,0.1407314227975991,0.5134122615275264,0.7900984156535922,1.333848165794448,0.7200492600433369,0.5236827046033584,1.083630775075539,1.241171106944339,0.49935266393665,0.3515083481231648,1.126460475178832,778.8644688644689,812.7106227106227,810.6959706959707,808.2783882783883,764.7619047619048,-0.153320,0.183655,0.977295,4.179535,-1.966400,-1.988831,1,1,1,1,1,100.000000
2021-11-02 20:30:08.929,,,,,,,,,,,,,,,,,,,,,,,,,,,,,,,,,,,,,,/muse/elements/blink
2021-11-02 20:30:09.271,1.045981503021372,0.07566998584122479,1.083532442577066,0.4939462912316108,0.5423387127182323,-0.01107373929699348,0.7597375807487703,0.3181343019225867,0.7928700469896383,-0.07527041381923349,0.7804601373877598,0.6139886096951725,1.333848165794448,0.8158291422515535,0.6013906419974934,0.9895805797722503,1.241171106944339,0.5146673393121256,0.4659655982890291,1.064356664296315,772.014652014652,800.6227106227107,817.5457875457876,857.8388278388279,768.7912087912088,-0.248413,0.183594,0.955750,8.837585,1.308441,-10.990906,1,1,1,1,1,100.000000
2021-11-02 20:30:09.552,,,,,,,,,,,,,,,,,,,,,,,,,,,,,,,,,,,,,,/muse/elements/blink
2021-11-02 20:30:10.270,1.045981503021372,0.3809925622957419,1.455736280675579,0.3308780575848613,0.5423387127182323,-0.3319921597340073,1.136868185165666,0.09301955010941451,0.7928700469896383,-0.1977750753315244,0.93238709825702,0.4144163747149954,1.333848165794448,0.8797176912639894,0.6766557708492438,1.154282236552737,1.241171106944339,0.3706669609829085,0.3812568429743246,1.076979738474929,851.3919413919414,789.7435897435897,794.1758241758242,813.1135531135532,753.0769230769231,-0.259338,0.152039,0.980896,3.656158,-24.254761,3.274841,1,1,1,1,1,100.000000
2021-11-02 20:30:11.279,1.045981503021372,0.7113023490841431,0.610598066860368,0.7780744501752073,0.5423387127182323,0.1788931675198333,0.4811009649007177,0.4726019590949831,0.7928700469896383,0.589736455578226,0.843609206321022,1.063359115291847,1.333848165794448,0.7751577438327724,0.5361788749278825,1.26960714841138,1.241171106944339,0.8687547144134443,0.216379296204995,1.257085725210766,763.956043956044,791.3553113553114,814.3223443223443,772.4175824175825,788.5347985347986,-0.235840,0.171326,0.972046,7.574005,-7.035675,2.078552,1,1,1,1,1,100.000000
2021-11-02 20:30:12.270,1.045981503021372,1.59449282942744,1.532135239526728,0.905578430424968,0.5423387127182323,0.9905421129158873,1.074113684070373,0.4532431172102898,0.7928700469896383,0.7881286082666743,0.7327646245405918,0.9583404201877449,1.333848165794448,0.7378903044813347,0.5755193056143421,1.250209889302004,1.241171106944339,0.7091696232232271,0.3503264014166863,1.293927902450168,789.7435897435897,786.5201465201466,803.040293040293,794.981684981685,736.5567765567765,-0.225342,0.167603,0.959167,5.525360,-5.390778,-0.867310,1,1,1,1,1,100.000000
2021-11-02 20:30:13.270,0.7490850592135159,1.139772938656695,0.9746683227928786,0.6758393183342504,0.7251946575415126,0.476550681049105,0.4507195285006969,0.298419915117184,0.8566685020458747,0.6065466100442399,0.5694385090188731,0.8702460477954357,1.459140136485988,0.4165905311838384,0.3629570654814448,1.149545092622183,1.554251150182194,0.3641323701077742,0.3888547084131072,1.279203456267852,823.1868131868132,806.6666666666667,784.1025641025641,808.2783882783883,771.2087912087912,-0.243408,0.157410,0.939026,5.323486,7.050629,-4.097290,1,1,1,1,1,100.000000
2021-11-02 20:30:14.270,0.7098198849495331,1.369578541258897,1.221122050160405,0.8341188212435489,0.7641772009513634,0.9594808305502177,0.8575177890919705,0.8339386035051721,0.8042073454584378,0.9006032872000876,0.7709146833317962,1.073776424217641,1.422384409767127,0.6053053288692355,0.4427693462177332,1.264361009125783,1.560965221087835,0.4348443070329581,0.431939605908169,1.13446274805957,775.6410256410256,795.7875457875458,808.6813186813187,828.4249084249085,689.0109890109891,-0.250244,0.167297,0.977905,4.755249,-4.441223,-2.564545,1,1,1,1,1,100.000000
2021-11-02 20:30:15.270,0.7578935237800353,1.194672736555465,1.018208087874184,1.007375660249306,0.7594272409225576,0.9152654054767425,0.6825114880386789,0.8975371023637694,0.7245045731743484,1.067120825346073,0.5679196800323957,1.131237437212974,1.422705600772119,0.7213431471188818,0.4419110511909479,1.282262180764265,1.581950117146444,0.4981992280991995,0.5128460402889204,1.163193665477279,775.6410256410256,784.9084249084249,805.0549450549451,803.8461538461539,707.1428571428571,-0.247192,0.174194,0.957581,4.314117,-4.142151,-0.478516,1,1,1,1,1,100.000000
2021-11-02 20:30:15.873,,,,,,,,,,,,,,,,,,,,,,,,,,,,,,,,,,,,,,/muse/elements/blink
2021-11-02 20:30:16.270,0.7578935237800353,1.484762482749429,1.29728144524003,1.145752687986659,0.7594272409225576,1.023175895624758,0.7445536913496861,0.5670161233336295,0.7245045731743484,1.04364963430554,0.8617012309794162,0.9113191695809407,1.422705600772119,0.6034531805676413,0.4603263655205939,1.073795741754798,1.581950117146444,0.4404925824561116,0.3163460912844731,1.222704815462556,778.4615384615385,797.3992673992674,809.0842490842491,781.2820512820513,745.0183150183151,-0.191406,0.160706,0.978821,3.932800,-4.583282,-1.757050,1,1,1,1,1,100.000000
2021-11-02 20:30:16.669,,,,,,,,,,,,,,,,,,,,,,,,,,,,,,,,,,,,,,/muse/elements/blink
2021-11-02 20:30:17.270,0.7578935237800353,1.176926115832065,1.001443921752138,1.245845536592317,0.7594272409225576,0.6073031853637293,0.4263879338163478,0.4072604393202254,0.7245045731743484,0.4341607238310617,0.6038564077037556,0.7630739795689527,1.422705600772119,0.6397869118434422,0.3617066485134747,0.9740845826164231,1.581950117146444,0.2476023674666385,0.2323564922974542,1.251000906639449,773.6263736263736,801.4285714285714,796.996336996337,755.8974358974359,684.1758241758242,-0.189087,0.168335,0.980286,5.951538,-6.467438,0.343933,1,1,1,1,1,100.000000
2021-11-02 20:30:17.701,,,,,,,,,,,,,,,,,,,,,,,,,,,,,,,,,,,,,,/muse/elements/blink
2021-11-02 20:30:18.279,0.7578935237800353,0.8274519733419742,0.7937131554093264,1.245845536592317,0.7594272409225576,0.1793646781140827,0.3571002679817719,0.4072604393202254,0.7245045731743484,0.290779054311018,0.1046701366462204,0.7630739795689527,1.422705600772119,0.7282304424752056,0.2490328516052582,0.9740845826164231,1.581950117146444,-0.01251242153596486,0.1799577879001437,1.251000906639449,775.2380952380953,792.967032967033,796.1904761904763,792.967032967033,809.8901098901099,-0.141541,0.195312,0.987000,5.854340,-5.121613,-1.218719,1,1,1,1,1,100.000000
2021-11-02 20:30:19.270,0.6116648206475865,0.4636876186949283,0.04505322497260516,0.6061880487885621,0.9387437342011984,0.1922188732402949,0.3142926792153546,0.5448825734743573,0.747985620609133,0.2654687032596879,0.5354709918126858,0.5357417143170362,1.253090805899675,0.2613799643340155,0.6538909699721943,0.874276618133958,1.147394090493302,0.360962707094528,0.4202831008243453,0.8313144245199062,766.3736263736264,795.3846153846154,806.2637362637363,814.3223443223443,767.5824175824176,-0.121582,0.195740,0.979919,3.985138,-6.228180,-1.009369,1,2,1,1,2,100.000000
2021-11-02 20:30:20.273,1.016330043356017,1.175821173799685,1.134692540354248,0.6929931682061691,0.6758518184320648,0.7052719536951189,0.6543772231671218,0.4589755835997141,0.8379374371955362,0.6793590637836128,0.6615958080728819,0.7199294821073878,1.206641095492789,0.2718091480425355,0.5435052695699738,0.878543383419607,1.345120205633848,0.2245736889674779,0.3374011282516877,0.821024111971798,799.8168498168499,805.0549450549451,801.4285714285714,808.2783882783883,818.7545787545788,-0.147705,0.192810,0.978638,3.005676,-3.985138,-2.482300,1,1,1,1,1,100.000000
2021-11-02 20:30:21.277,0.8015302046974992,1.02456359862411,1.1126745113999,0.6366573208737792,0.483688708116996,0.6090658048944221,0.4862521522443357,0.3688858381480638,0.8464614330776015,0.6711253978005063,0.4523973330901024,0.8597831918731033,1.383042397696667,0.2371738289661255,0.3802538587771323,1.072174330155383,1.498992815294303,0.006088413903115064,0.2736344627105091,0.9368975955248944,772.8205128205128,793.3699633699634,808.6813186813187,812.3076923076924,670.8791208791209,-0.155884,0.203918,0.985352,5.839386,-4.179535,-1.114044,1,1,1,1,1,100.000000
2021-11-02 20:30:22.270,0.5840775600859071,0.09089672970486297,0.07801200219554466,0.7375565477662841,0.551609202863622,-0.08965781482451288,-0.1157521522079967,0.5239400635762201,1.095464537062107,0.09529428486927469,0.2102195523304851,1.044629919942051,1.340785980323351,0.1634365523001573,0.3254424697159021,1.156187507301582,1.37763858228248,0.006494208366503194,0.0543060715646108,1.012323607143709,800.2197802197802,799.4139194139194,809.8901098901099,790.1465201465202,715.6043956043957,-0.157776,0.196838,0.991089,5.323486,-6.138458,-0.149536,1,1,1,1,1,100.000000
2021-11-02 20:30:23.270,0.5325060905045012,0.1602582110739978,-0.3049634677427255,0.8118598380056395,0.4952223408634861,-0.1129714883715657,-0.1734753477196483,0.6613344999268032,1.153499659495433,0.2853430163952592,0.1752815166946491,1.026893198656294,1.339438981617575,0.2142580177073795,0.4160685876709063,1.066519998513417,1.195607909243465,-0.01152076383487591,0.2378589784914334,0.950527752920941,816.3369963369963,797.3992673992674,807.4725274725275,816.7399267399268,729.7069597069598,-0.155884,0.191101,0.977295,6.123505,-5.144043,-1.465454,1,1,1,1,1,100.000000
2021-11-02 20:30:23.715,,,,,,,,,,,,,,,,,,,,,,,,,,,,,,,,,,,,,,/muse/elements/blink
2021-11-02 20:30:24.270,0.558089627562205,0.1687664914044774,1.351253922508204,0.5075175387256371,0.404997123393504,-0.07897404407660603,0.7604173308453451,0.4681332638064185,0.9977450190799172,0.43527683384442,0.6592723178219591,0.5658112698870497,1.293686253095782,0.1880569488941651,0.6319984339118507,0.9094713509092641,1.194839757619595,0.09566659305903875,0.3948381080298515,0.8428661280124913,798.6080586080586,804.2490842490843,815.1282051282052,813.919413919414,784.5054945054945,-0.237976,0.178406,0.962769,2.863617,-11.446991,2.459869,1,1,1,1,1,100.000000
2021-11-02 20:30:24.515,,,,,,,,,,,,,,,,,,,,,,,,,,,,,,,,,,,,,,/muse/elements/blink
2021-11-02 20:30:25.270,0.7216421203779968,0.06749168966264213,1.609744583862563,0.5183814988140899,0.3947365386800822,-0.1480445771842938,1.027630582929156,0.5759629141073215,0.8635476135847339,0.4063312815187433,0.7957965263032253,0.4871290840234351,1.3703458971306,0.1514642773801743,0.7085670240371124,0.8667204426736104,1.207678503544485,0.2245789073743348,0.4467488340998267,0.9659035881556914,761.941391941392,820.3663003663004,809.4871794871796,764.7619047619048,657.985347985348,-0.169617,0.170288,0.986267,3.521576,-5.420685,-5.181427,1,1,1,1,1,100.000000
2021-11-02 20:30:26.270,0.7216421203779968,0.2113331045595671,0.4948575454387274,1.594062247231093,0.3947365386800822,-0.3699723115999007,0.2689818354498456,0.7225339380844993,0.8635476135847339,0.2851768284071235,0.6700445820496634,1.048979513771282,1.3703458971306,0.3695077699531779,0.5477188750599944,1.24869409754951,1.207678503544485,0.4651152746958863,0.3720161298326295,1.191581939446825,870.7326007326008,807.8754578754579,803.040293040293,791.3553113553114,668.8644688644689,-0.167786,0.186646,0.984131,5.256195,-5.458069,-0.755157,1,1,1,1,1,100.000000
2021-11-02 20:30:27.270,1.302419082862399,-0.2748384814888575,-0.1600086220121396,1.396877785425822,0.4767175681675637,-0.1996728810798814,-0.08526551915555949,0.5679241664670728,0.7582418266706014,0.1201204414077467,0.4353054106512081,1.096246348351043,1.411714808752283,0.4009189618493498,0.4341569749726314,1.262523924163275,1.216550166412922,0.3871274457956269,0.1288210087918267,1.113447360049348,782.0879120879121,788.1318681318681,818.7545787545788,807.8754578754579,949.7069597069598,-0.155273,0.179565,0.977051,4.336548,-5.532837,-0.874786,1,1,1,1,1,100.000000
2021-11-02 20:30:27.835,,,,,,,,,,,,,,,,,,,,,,,,,,,,,,,,,,,,,,/muse/elements/blink
2021-11-02 20:30:28.270,1.274288903152953,0.7901559482059499,1.179744994472304,1.044975928791858,0.4398651191310137,0.6228637608749522,0.4743866515097245,0.3743653314039883,0.7934414914249014,0.8439737814736374,0.5090764475888171,0.9781425884178989,1.317578827745129,0.541290104550588,0.3753827625224231,1.263124112293715,1.116140713965363,0.193026552279337,0.1169376655750951,0.9085407284679351,791.7582417582418,797.8021978021978,816.7399267399268,807.4725274725275,787.7289377289378,-0.163574,0.175049,0.983582,3.536530,-3.917847,-2.033691,1,1,1,1,1,100.000000
2021-11-02 20:30:29.270,0.9758158856587968,1.126005201953775,1.541117800426942,0.8775408156581129,0.845287947585202,0.9005656550084108,0.7276651413100726,0.7259963692155015,0.9894724892501544,0.8407427224843517,0.5951131052503333,0.9890429354039021,1.342835730888019,0.5286035336100459,0.1820390814672999,1.128738822843481,1.213314495231672,0.06933788389805594,0.03884087396246691,1.106263458798365,780.4761904761905,799.0109890109891,799.8168498168499,803.040293040293,791.3553113553114,-0.171082,0.173279,0.973145,3.349609,-5.129089,-2.826233,1,1,1,1,1,100.000000
2021-11-02 20:30:30.271,0.9912357321226787,1.258429435582066,1.137936465001028,1.046816852825134,0.791105150679757,0.7588931285848469,0.539537194568774,0.6407550582839376,1.140471582516553,0.961917340023525,0.7356773548274834,1.073037759207604,1.320894831756214,0.2980567557613842,0.125744689010965,1.145988466757939,1.152169396602406,0.001935972806929628,-0.1410830199960435,1.282141457734702,819.1575091575091,798.2051282051282,803.040293040293,846.959706959707,753.0769230769231,-0.159485,0.175171,0.975647,4.187012,-5.607605,-0.328979,1,1,1,1,1,100.000000
2021-11-02 20:30:31.270,1.206572754810312,0.1544844875214012,0.09113905279060762,1.53230752115182,0.8377202677799646,-0.183904887153991,-0.5098851921974152,0.6360591830596224,1.100096238112402,0.2779462501967029,-0.005950776837612436,0.9956523905339251,1.239817373437476,0.1209684788415943,0.1995110795183715,1.119663783339552,1.020391168176819,-0.1143264427729988,-0.02537443614034122,1.166139901423232,783.2967032967033,805.0549450549451,806.2637362637363,760.7326007326008,677.3260073260074,-0.148926,0.174744,0.996216,4.037476,-4.964600,-2.011261,1,1,1,1,1,100.000000
2021-11-02 20:30:31.634,,,,,,,,,,,,,,,,,,,,,,,,,,,,,,,,,,,,,,/muse/elements/blink
2021-11-02 20:30:31.724,,,,,,,,,,,,,,,,,,,,,,,,,,,,,,,,,,,,,,/muse/elements/jaw_clench
2021-11-02 20:30:32.270,1.30009559522366,0.7844429610059844,0.367543927403675,1.640302364553499,1.033095910460147,0.1954826991260324,-0.3151372623479755,0.6013338559282851,0.7881047299339131,0.5370265861735963,0.2121020105451615,0.7887575783101289,1.245055475585436,0.4912625512937759,0.5107641510844387,0.8959663917771552,0.953708725011578,0.1842662810669709,0.5863880789148561,0.5956929903063929,726.8864468864469,783.2967032967033,824.7985347985348,815.934065934066,747.4358974358975,-0.169373,0.052795,0.930054,-5.772095,-16.860199,3.671112,1,1,1,1,1,100.000000
2021-11-02 20:30:32.702,,,,,,,,,,,,,,,,,,,,,,,,,,,,,,,,,,,,,,/muse/elements/jaw_clench
2021-11-02 20:30:32.944,,,,,,,,,,,,,,,,,,,,,,,,,,,,,,,,,,,,,,/muse/elements/jaw_clench
2021-11-02 20:30:33.034,,,,,,,,,,,,,,,,,,,,,,,,,,,,,,,,,,,,,,/muse/elements/blink
2021-11-02 20:30:33.214,,,,,,,,,,,,,,,,,,,,,,,,,,,,,,,,,,,,,,/muse/elements/jaw_clench
2021-11-02 20:30:33.270,1.256218487384443,1.130239464308592,0.6444314138798312,1.520372327325802,0.9770339334943621,0.8241552540484354,0.3556043435488665,0.5294340516264381,0.7881047299339131,0.960271649737264,0.6784186832875502,0.673374609203191,1.297724091484905,0.4949356840147363,0.5409853613296423,0.9022522264579139,1.009909759452339,0.214428093001841,0.6359493044988177,0.4748040088973045,869.92673992674,815.5311355311355,801.4285714285714,782.0879120879121,512.1245421245421,-0.082703,-0.130554,1.015625,9.607697,6.564636,-1.719666,1,1,1,1,1,100.000000
2021-11-02 20:30:33.457,,,,,,,,,,,,,,,,,,,,,,,,,,,,,,,,,,,,,,/muse/elements/jaw_clench
2021-11-02 20:30:33.924,,,,,,,,,,,,,,,,,,,,,,,,,,,,,,,,,,,,,,/muse/elements/jaw_clench
2021-11-02 20:30:34.271,1.256218487384443,1.355199270029573,0.872973434088106,1.520372327325802,0.9770339334943621,1.127968450676207,0.5824227975168984,0.5294340516264381,0.7881047299339131,1.003150458343385,0.7386668765279354,0.673374609203191,1.297724091484905,0.1697502033724287,0.3493194152929984,0.9022522264579139,1.009909759452339,0.1332233162408464,0.4747354707457019,0.4748040088973045,943.6630036630037,822.7838827838829,800.6227106227107,888.8644688644689,689.0109890109891,-0.190002,0.153442,0.979614,8.052521,-38.505554,-17.906952,1,2,1,1,2,100.000000
2021-11-02 20:30:34.950,,,,,,,,,,,,,,,,,,,,,,,,,,,,,,,,,,,,,,/muse/elements/jaw_clench
2021-11-02 20:30:35.271,1.256218487384443,0.9860589491887637,0.8165496193733628,1.520372327325802,0.9770339334943621,0.4943110122063447,0.6175763356616019,0.5294340516264381,0.7881047299339131,0.7733625103996736,0.8139640565566868,0.673374609203191,1.297724091484905,0.7614350549020198,0.6607053293010106,0.9022522264579139,1.009909759452339,0.6274654799585189,0.9596242416107419,0.4748040088973045,744.2124542124542,803.040293040293,813.5164835164835,816.3369963369963,650.7326007326008,-0.085022,0.227661,1.007568,2.243042,-9.891815,-1.966400,1,2,1,1,2,100.000000
2021-11-02 20:30:35.568,,,,,,,,,,,,,,,,,,,,,,,,,,,,,,,,,,,,,,/muse/elements/blink
2021-11-02 20:30:36.077,,,,,,,,,,,,,,,,,,,,,,,,,,,,,,,,,,,,,,/muse/elements/jaw_clench
2021-11-02 20:30:36.270,1.256218487384443,1.004822773907631,1.492322573487512,1.520372327325802,0.9770339334943621,0.5642997838113133,0.772586718848526,0.5294340516264381,0.7881047299339131,0.8990501279802825,0.848100340208778,0.673374609203191,1.297724091484905,0.7284217216093914,0.6484709725765018,0.9022522264579139,1.009909759452339,0.5409152533890919,0.7210824806428568,0.4748040088973045,801.025641025641,786.5201465201466,814.3223443223443,810.2930402930403,971.0622710622711,-0.072693,0.182983,0.998779,4.411316,-3.895416,2.504730,1,2,1,1,2,100.000000
2021-11-02 20:30:36.960,,,,,,,,,,,,,,,,,,,,,,,,,,,,,,,,,,,,,,/muse/elements/blink
2021-11-02 20:30:37.113,,,,,,,,,,,,,,,,,,,,,,,,,,,,,,,,,,,,,,/muse/elements/jaw_clench
2021-11-02 20:30:37.270,1.256218487384443,1.314908057830068,1.712787201974363,1.520372327325802,0.9770339334943621,0.7827857255889941,0.7603593970019017,0.5294340516264381,0.7881047299339131,0.8763096109647633,0.6759498455118279,0.673374609203191,1.297724091484905,0.379828275681965,0.3487137813987619,0.9022522264579139,1.009909759452339,0.2654286228068964,0.1230157630846478,0.4748040088973045,798.6080586080586,792.1611721611722,819.1575091575091,834.8717948717949,662.014652014652,-0.085632,0.241211,0.976929,10.108643,-5.996399,-18.206024,1,2,1,1,2,100.000000
2021-11-02 20:30:37.382,,,,,,,,,,,,,,,,,,,,,,,,,,,,,,,,,,,,,,/muse/elements/jaw_clench
2021-11-02 20:30:37.711,,,,,,,,,,,,,,,,,,,,,,,,,,,,,,,,,,,,,,/muse/elements/jaw_clench
2021-11-02 20:30:38.275,1.256218487384443,1.099757972707871,1.51646480723689,1.520372327325802,0.9770339334943621,0.4324328535452406,0.6767135021398497,0.5294340516264381,0.7881047299339131,0.6967554167495544,0.7196310172135615,0.673374609203191,1.297724091484905,0.3059146264263637,0.3611425457309391,0.9022522264579139,1.009909759452339,0.273468108523458,0.253009159661393,0.4748040088973045,767.985347985348,807.8754578754579,809.8901098901099,821.978021978022,734.1391941391942,-0.109070,0.213806,0.980896,4.187012,-4.373932,-3.020630,1,2,1,1,2,100.000000
2021-11-02 20:30:38.792,,,,,,,,,,,,,,,,,,,,,,,,,,,,,,,,,,,,,,/muse/elements/jaw_clench
2021-11-02 20:30:39.271,1.256218487384443,0.6124723403890719,1.231839354884039,1.520372327325802,0.9770339334943621,0.09795459983569452,0.3813068290096127,0.5294340516264381,0.7881047299339131,0.4269261286420772,0.6236872311543428,0.673374609203191,1.297724091484905,0.3867056243250498,0.3499874228342452,0.9022522264579139,1.009909759452339,0.2112617237889332,0.2018807748087947,0.4748040088973045,752.6739926739926,783.6996336996338,795.7875457875458,806.2637362637363,711.5750915750916,-0.086304,0.221313,0.984131,5.734711,-4.426270,-2.280426,1,2,1,1,2,100.000000
2021-11-02 20:30:40.270,1.256218487384443,0.3952351778681262,0.288869592738466,1.308698416170852,0.9770339334943621,-0.1499694393065006,0.005220219213314839,0.5746358860288358,0.7881047299339131,0.1494400345403586,0.3978483978116919,0.7965281526261827,1.297724091484905,0.1908075642268838,0.3443800021981664,1.236349362433341,1.009909759452339,0.05630659982728553,-0.08198041139742465,1.095490681737622,633.0036630036631,830.4395604395604,851.3919413919414,673.2967032967033,662.8205128205128,-0.092957,0.231934,0.993103,3.095398,-6.153412,-0.852356,1,1,1,1,1,100.000000
2021-11-02 20:30:40.444,,,,,,,,,,,,,,,,,,,,,,,,,,,,,,,,,,,,,,/muse/elements/blink
2021-11-02 20:30:41.270,1.256218487384443,1.310217615063439,1.351615520105257,1.251875180541079,0.9770339334943621,0.8588540649272426,0.9104114824011889,0.507215087841664,0.7881047299339131,0.3408189436764265,0.7137307562258183,0.7852070598588864,1.297724091484905,0.1856287224232961,0.3076359483610019,1.226451527825087,1.009909759452339,0.07291919893237274,-0.003528669189176213,1.115554925048937,852.1978021978023,816.3369963369963,801.4285714285714,801.8315018315019,745.0183150183151,-0.148499,0.235840,1.020569,5.330963,30.251160,-8.912354,1,1,1,1,1,100.000000
2021-11-02 20:30:42.274,1.256218487384443,1.102954592421762,1.076931807413366,1.613686006607162,0.9770339334943621,0.6314853066580982,0.5963398378235472,0.6907751875744345,0.7881047299339131,0.6076680212893006,0.7782410127798859,1.040480632381245,1.297724091484905,0.4105959431691925,0.5707192561907717,1.478354603650313,1.009909759452339,0.2099122535165734,0.3787577912776282,1.167447618497524,769.1941391941392,788.1318681318681,798.6080586080586,797.3992673992674,775.2380952380953,-0.148315,0.231079,0.972046,5.383301,-5.241241,-0.672913,1,1,1,1,1,100.000000
2021-11-02 20:30:43.062,,,,,,,,,,,,,,,,,,,,,,,,,,,,,,,,,,,,,,/muse/elements/blink
2021-11-02 20:30:43.273,1.256218487384443,0.4283013094553358,0.8113163239745129,1.493132483892244,0.9770339334943621,0.09548634693475622,0.5595751883330172,0.5214081777031043,0.7881047299339131,0.6010547553551449,0.603947245030817,1.018514247882495,1.297724091484905,0.3117905996096023,0.5402919709289506,1.324334903859496,1.009909759452339,0.1093263694187488,0.475099243717178,1.135689719121111,796.5934065934066,795.7875457875458,793.7728937728938,784.1025641025641,676.9230769230769,-0.129028,0.235352,0.979065,1.487885,-4.859924,-0.216827,1,1,1,1,1,100.000000
2021-11-02 20:30:44.271,1.256218487384443,0.9759388344681754,1.48323274530714,0.6709383793062749,0.9770339334943621,0.6783486532986247,1.083558942530848,0.6808622838020165,0.7881047299339131,0.4310874320082118,0.4527303204745867,0.7030441408182069,1.297724091484905,0.2961660501352399,0.5272364000651582,1.114432547354676,1.009909759452339,-0.04890048966139658,0.3886816414392359,1.14042496713459,797.3992673992674,796.5934065934066,792.967032967033,826.4102564102565,714.7985347985348,-0.124268,0.231995,0.976562,4.403839,-4.972076,-1.495361,1,1,1,1,1,100.000000
2021-11-02 20:30:45.276,1.050291801353421,0.273153312557821,-0.1088553635582229,0.439249416665541,0.5410986610685981,-0.06111105727120293,-0.4726661977436794,0.5377305776198295,0.9696271561616103,0.09513413853999182,0.08173601419193717,0.818722101556731,1.462001117138003,0.2533644918963913,0.3048173662660267,1.183439408428617,1.268122542671356,-0.01070217730558205,0.02941392236578026,1.162481929477165,785.7142857142858,798.6080586080586,797.3992673992674,796.5934065934066,812.3076923076924,-0.130066,0.227600,0.966858,4.187012,-4.613190,-2.459869,1,1,1,1,1,100.000000
2021-11-02 20:30:46.277,0.5834126874732185,-0.251459083572134,-0.6116396907058905,0.2427320759567267,0.5881989999206267,-0.2407406387355708,-0.4947962783525911,0.1470379742779524,0.9932662698305822,0.08450158314037201,-0.1152256422319242,0.8497071221743218,1.462422025147887,0.1304383996295677,0.1719120963076763,1.083798745856558,1.243107833210626,0.006337520105467113,0.01193722192579577,1.155455743099905,807.8754578754579,789.7435897435897,799.4139194139194,792.5641025641025,680.5494505494506,-0.133850,0.226013,0.970642,4.336548,-4.650574,-2.803802,1,1,1,1,1,100.000000
2021-11-02 20:30:47.270,0.9497266436357401,-0.2132872743423465,-0.5732607594812301,0.6406328472619183,0.6386543517482242,-0.4409520657226095,-0.4185444832715015,0.3730636289558952,1.001539470096003,0.05196119176181188,-0.0504330680102659,1.122917507702208,1.342520639617268,0.09036779384412441,0.1516240337442339,1.016988965942199,1.117251004915357,-0.1404883742637246,-0.04223536470804198,0.888201823470336,777.6556776556777,796.1904761904763,794.5787545787546,801.4285714285714,753.0769230769231,-0.144104,0.230103,0.975525,6.130981,-6.557159,-0.515900,1,1,1,1,1,100.000000
2021-11-02 20:30:48.275,0.9770955845217125,-0.02307018460046527,-0.1356945300133778,0.7993710943094535,0.7519520417981497,-0.4186937714241535,-0.26884201915717,0.59456534519895,1.047442933344526,0.0570518314424667,0.1196341470161837,1.126114261322125,1.193123751166008,0.08659254661726166,0.1581733193807985,1.138057001084716,1.173206831256174,-0.03609981927861158,-0.01052882565551652,0.8639177945179947,769.5970695970697,792.5641025641025,803.4432234432235,785.7142857142858,784.5054945054945,-0.143372,0.223816,0.974609,4.568329,-5.861816,-1.973877,1,1,1,1,1,100.000000
2021-11-02 20:30:49.270,0.7635307125613985,0.1139586018592943,0.2462870092148083,0.5155255145725512,0.6105163353490599,-0.09281590321296483,-0.2472221829229581,0.5169906199208247,1.059677991699499,0.2836032697789054,0.2262524985911733,0.8042342163599213,1.126734772654482,0.1983643874188294,0.2295737101195333,1.344654200341264,1.322357112763154,-0.1927223371186008,-0.08460984098533493,1.020561488955368,804.2490842490843,809.0842490842491,811.9047619047619,803.040293040293,635.0183150183151,-0.138672,0.228882,0.973816,3.895416,-4.710388,-1.196289,1,1,1,1,1,100.000000
2021-11-02 20:30:50.271,1.011070329099179,0.4462217228574748,0.5593400797468028,0.5936489340992096,0.709575275587191,0.1553525163581866,-0.1122670177462584,0.5955093545946181,0.9377759713781854,0.4976962373033503,0.3441722430881016,0.7452821714096617,1.265903217454505,0.4184973431493022,0.3433254139169311,1.197227993542355,1.438063602310871,0.09386441077564113,0.1874644220696152,1.052669813756059,793.3699633699634,799.8168498168499,807.4725274725275,800.6227106227107,730.5128205128206,-0.125854,0.227417,0.986755,4.927216,-5.226288,-0.665436,1,1,1,1,1,100.000000
2021-11-02 20:30:51.271,0.7027241430824415,0.2676247792255436,0.4109373007093801,0.3571893853425054,0.5275980562571366,-0.03724438445653936,0.002341780340106512,0.5824026948704047,0.8526153573208746,0.4976962373033503,0.2989531716841765,0.7563401346594237,1.467989488332256,0.3873816920058201,0.4163703811627062,1.213713071886934,1.453056854284553,0.1762338848331109,0.2716021247204653,1.193931040807823,802.2344322344322,803.8461538461539,810.6959706959707,791.7582417582418,724.0659340659341,-0.126648,0.223206,0.979065,5.084229,-4.299164,-2.302856,1,1,1,1,1,100.000000
2021-11-02 20:30:51.746,,,,,,,,,,,,,,,,,,,,,,,,,,,,,,,,,,,,,,/muse/elements/blink
2021-11-02 20:30:52.275,0.4647718719215999,1.2368678698733,0.7292791373245102,-0.03032217655231454,0.3394638416581646,1.053390781666804,0.4052833017197203,0.5031731621358073,0.7388255866623747,0.833090820337445,0.3817564887815035,0.8149809969800517,1.444261569391875,0.3260197424729677,0.4869614511620728,1.213826268649822,1.420588109585339,0.09291048078275771,0.1284937074605565,1.197282740745093,818.3516483516484,806.2637362637363,805.8608058608058,829.2307692307693,589.8901098901099,-0.152954,0.226807,0.971130,5.450592,-6.452484,-1.801910,1,1,1,1,1,100.000000
2021-11-02 20:30:53.270,0.7745903785261443,1.304842747242771,0.7453291563832476,0.2458255199085728,0.6469931186031804,1.107267489263701,0.3547475641639657,0.2173778675379531,0.5898888785782171,0.8416001287353844,0.2996968950177746,0.4682731417834456,1.398232435527151,0.2587018866086324,0.4407285480016332,1.143623994820113,1.232489945812643,0.006659118240686699,0.1688574317364482,1.12846200966386,803.8461538461539,799.8168498168499,805.4578754578755,806.2637362637363,759.5238095238095,-0.135559,0.221436,0.966614,4.523468,-0.336456,-2.564545,1,1,1,1,1,100.000000
2021-11-02 20:30:54.274,1.108429125580485,0.01003219033187481,-0.5387557381546277,0.8226217381424528,0.6044530604125395,-0.1992394915690802,-0.2672499101173816,0.285084983633727,0.9063838985315036,0.312949425247523,0.1126352427017303,0.8732191831907717,1.407706688767818,0.2044395594240527,0.4708303412310252,1.223263345532848,1.300818228988377,-0.007071297086641097,0.3465959739355196,1.136507986946481,794.5787545787546,791.7582417582418,801.4285714285714,824.7985347985348,912.2344322344322,-0.167908,0.227722,0.967224,4.351501,-6.624451,-2.213135,1,1,1,1,1,100.000000
2021-11-02 20:30:55.278,1.227848046645959,0.1757249750217123,0.1006037197529471,0.858681345098223,0.6737335723092308,0.07326676306099125,-0.05997630627835496,0.6716020764490762,0.9138944168356499,0.2113084627719255,0.3292811860001937,1.034100000667262,1.301067088473441,0.1549681831686017,0.3577195342154685,0.9549300714844448,1.211951370352374,-0.10874036555917,0.02503672902560771,1.026303927389183,823.1868131868132,799.0109890109891,805.0549450549451,811.5018315018315,673.2967032967033,-0.148132,0.248657,0.967834,7.745972,-3.850555,4.373932,1,1,1,1,1,100.000000
2021-11-02 20:30:56.107,,,,,,,,,,,,,,,,,,,,,,,,,,,,,,,,,,,,,,/muse/elements/blink
2021-11-02 20:30:56.271,0.9257466015527062,0.4372005545022158,0.295985579616159,0.554290174466805,0.7529457098097718,0.03223018023620491,-0.08377041127252068,0.7435928265787469,0.9183848639197081,0.2245283866867544,0.2777219256922119,0.9794627590671302,1.086188407829932,0.07707901350996967,0.2703512573852501,0.9013451027213981,0.9451167134853129,-0.03036396338732245,-0.07487788210220282,0.8467360045696628,649.1208791208792,788.9377289377289,785.7142857142858,492.3809523809524,1073.003663003663,-0.148682,0.122314,0.892395,-11.551666,-9.136658,11.185303,1,1,1,1,1,100.000000
2021-11-02 20:30:56.377,,,,,,,,,,,,,,,,,,,,,,,,,,,,,,,,,,,,,,/muse/elements/blink
2021-11-02 20:30:56.467,,,,,,,,,,,,,,,,,,,,,,,,,,,,,,,,,,,,,,/muse/elements/jaw_clench
2021-11-02 20:30:57.087,,,,,,,,,,,,,,,,,,,,,,,,,,,,,,,,,,,,,,/muse/elements/blink
2021-11-02 20:30:57.274,1.045891794634783,0.4538709895582448,1.133813735265344,0.4451349438167257,0.741622438151764,-0.3297838921944803,0.5163630197112594,0.2728538614663159,0.4881924846145004,-0.001313936389510824,0.5481163871754221,0.2352462938340384,1.086584356844022,0.1570368552483046,0.4248974845926878,0.9664576874732729,0.8421454201693085,-0.1424919140910492,0.1735397938724759,0.6697862905756506,830.4395604395604,807.0695970695971,821.5750915750916,786.5201465201466,758.3150183150184,-0.079102,0.163879,0.949829,7.364655,-7.940369,1.996307,1,1,1,1,1,100.000000
2021-11-02 20:30:57.308,,,,,,,,,,,,,,,,,,,,,,,,,,,,,,,,,,,,,,/muse/elements/jaw_clench
2021-11-02 20:30:57.591,,,,,,,,,,,,,,,,,,,,,,,,,,,,,,,,,,,,,,/muse/elements/blink
2021-11-02 20:30:57.681,,,,,,,,,,,,,,,,,,,,,,,,,,,,,,,,,,,,,,/muse/elements/jaw_clench
2021-11-02 20:30:58.206,,,,,,,,,,,,,,,,,,,,,,,,,,,,,,,,,,,,,,/muse/elements/blink
2021-11-02 20:30:58.271,1.045891794634783,0.4744670885299866,1.530084976491781,0.4451349438167257,0.741622438151764,-0.2982389229792635,0.9329170350879352,0.2728538614663159,0.4881924846145004,-0.003266598118000197,0.6647884960957592,0.2352462938340384,1.086584356844022,0.1718028429108396,0.2408482497752553,0.9664576874732729,0.8421454201693085,-0.1653499282827475,0.1654265279310907,0.6697862905756506,884.8351648351648,804.6520146520147,797.8021978021978,877.5824175824176,706.7399267399268,0.026794,0.314636,1.002075,3.409424,-1.323395,1.510315,1,1,1,1,1,100.000000
2021-11-02 20:30:58.925,,,,,,,,,,,,,,,,,,,,,,,,,,,,,,,,,,,,,,/muse/elements/jaw_clench
2021-11-02 20:30:59.271,1.045891794634783,0.8545341233151793,0.9004408499071123,0.4451349438167257,0.741622438151764,0.4395143062701464,0.1197553580234484,0.2728538614663159,0.4881924846145004,0.4806635137811002,0.9836625382942984,0.2352462938340384,1.086584356844022,0.4126237697422808,1.235258442946736,0.9664576874732729,0.8421454201693085,0.3419813088049752,1.105606573266548,0.6697862905756506,834.4688644688645,815.5311355311355,805.4578754578755,765.9706959706959,777.6556776556777,0.023315,0.299988,0.954895,3.147736,-3.050537,-3.072968,1,2,1,1,2,100.000000
2021-11-02 20:31:00.019,,,,,,,,,,,,,,,,,,,,,,,,,,,,,,,,,,,,,,/muse/elements/blink
2021-11-02 20:31:00.272,1.045891794634783,1.361477755927176,1.061822186617726,0.4451349438167257,0.741622438151764,0.7627464925595118,0.6026017295565926,0.2728538614663159,0.4881924846145004,0.6643354328874209,1.029836489454378,0.2352462938340384,1.086584356844022,0.6890650445440124,1.046158289785001,0.9664576874732729,0.8421454201693085,0.5771999594112569,0.8502948114016186,0.6697862905756506,876.7765567765568,796.1904761904763,787.3260073260074,900.5494505494506,743.4065934065934,-0.040405,0.267883,0.978210,5.218811,-3.529053,-3.379517,1,2,1,1,2,100.000000
2021-11-02 20:31:01.281,1.045891794634783,1.689655566661799,1.131177602615924,0.4451349438167257,0.741622438151764,0.9584866260700287,0.6578126814837721,0.2728538614663159,0.4881924846145004,0.6944437588204067,0.8825015120817349,0.2352462938340384,1.086584356844022,0.7730917314559573,0.7400970976841781,0.9664576874732729,0.8421454201693085,0.5355701086721595,0.5690408925975567,0.6697862905756506,818.7545787545788,803.040293040293,807.4725274725275,819.96336996337,604.7985347985348,-0.128235,0.297424,0.954346,5.824432,-2.549591,-0.680389,1,2,1,1,2,100.000000
2021-11-02 20:31:02.271,1.048678445424241,0.5490930523071171,0.3704422893184872,1.294461811588892,0.6285753069865779,0.01835067805430756,0.3131719685969413,0.6564458928347578,0.3994498819207418,0.5715139245277762,0.5160276637702128,0.6252738753644961,1.221685148304523,0.5194587699568161,0.6804045904720762,1.174162743806136,1.286028275614354,0.388057940754078,0.4189271344350443,1.050064998645116,798.2051282051282,802.2344322344322,801.025641025641,786.1172161172161,683.7728937728938,-0.110413,0.278076,0.958130,3.970184,-4.568329,-2.011261,1,1,1,1,1,95.000000
2021-11-02 20:31:03.271,0.482744535005899,-0.449197193599046,-0.1501259063097333,0.7323205060868917,0.3352457049644665,-0.3332407373171827,-0.104974291881341,0.09392361595617155,0.7110443177446807,0.1246547621678609,0.6067794200344149,0.7660913165606182,1.198723713926325,0.1430692020781442,0.6499332321778932,1.091716962313207,1.308281579390365,0.07911103162538277,0.4132745316162308,0.8694449794953235,792.5641025641025,799.4139194139194,797.8021978021978,796.5934065934066,747.8388278388279,-0.119019,0.263977,0.971863,3.334656,-4.306641,-2.542114,1,1,1,1,1,95.000000
2021-11-02 20:31:04.271,0.7045506943642585,-0.2151335995133047,-0.2306272003041462,0.6863147659929369,0.3742254413889552,0.01027977486618245,-0.2038099896842644,0.2032916145158943,0.8095906646944103,0.3365859215926288,0.5041049682371677,0.7063194259110631,1.01089309657716,0.09115838533671282,0.3533802559830195,1.13954710926753,1.180330766650418,-0.063080255205818,0.3339292115812465,0.9031475723892,861.8681318681319,799.4139194139194,798.2051282051282,782.4908424908425,701.9047619047619,-0.114502,0.243774,0.996155,3.349609,-3.558960,4.583282,1,1,1,1,1,95.000000
2021-11-02 20:31:05.271,1.165296002899439,-0.07816529387758195,0.2561923672575016,0.5947229850566116,0.5842378533464359,-0.1757600558349913,-0.02285463949614355,0.4178745821685985,0.6792479483701878,0.2793013831241765,0.3953282816938774,0.9439117806757596,1.098770894438863,0.1087510162971146,0.3180510060925441,1.105346003042449,1.037523066017071,-0.09977463093073469,0.1035353238864547,1.049049441745737,802.2344322344322,799.0109890109891,803.8461538461539,807.8754578754579,729.7069597069598,-0.119263,0.242065,0.969360,4.934692,-4.949646,0.201874,1,1,1,1,1,95.000000
2021-11-02 20:31:06.271,1.083893479666202,0.1616054196728349,0.2032505329864135,0.5665441338321499,0.52140837536402,-0.4006653075013562,-0.0603814219311177,0.5040680133510067,0.7403148935604753,0.03069722266913487,0.1147021495105136,0.8592004628511005,1.224020094557545,0.1058778240272444,0.1195225204931152,1.274297998204213,1.194854448011123,-0.3003470892851728,-0.1032304753730876,1.097507862638044,818.7545787545788,793.3699633699634,799.8168498168499,818.7545787545788,826.4102564102565,-0.123169,0.248291,0.968689,3.297272,-3.349609,0.209351,1,1,1,1,1,95.000000
2021-11-02 20:31:07.271,0.8930014730961454,0.09257091423274154,-0.05422625125540787,0.9257678799218739,0.6306539512866678,-0.1432694448798039,-0.1382810559246528,0.5974910884460214,0.9860221846863414,0.2221640726529904,0.4644043585746955,1.003372406136356,1.285055921211459,0.1604501272656555,0.1769896366832754,1.300519972043253,1.208352264040996,-0.1537759898777583,-0.2008466002778826,1.018676263078238,782.4908424908425,794.5787545787546,808.6813186813187,814.7252747252747,675.3113553113553,-0.150208,0.231201,0.961487,5.173950,-4.329071,-10.467529,1,1,1,1,1,95.000000
2021-11-02 20:31:07.854,,,,,,,,,,,,,,,,,,,,,,,,,,,,,,,,,,,,,,/muse/elements/blink
2021-11-02 20:31:08.277,0.9084475747462772,0.7766992882746416,1.417604830541052,0.8794897422751887,0.8152904226104692,-0.05707539048711958,0.2799941733401697,0.5011819042128185,1.048282052713777,0.3134912278951643,0.4506109930902998,1.076291750700713,1.329927016748584,0.1138690415188497,0.1552697704656141,1.30241107944995,1.254865963511556,-0.2448036653624332,-0.1323025831718902,1.046725771752805,829.6336996336996,806.2637362637363,814.3223443223443,816.7399267399268,764.7619047619048,-0.137024,0.228577,0.961121,3.820648,-4.755249,-2.549591,1,1,1,1,1,95.000000
2021-11-02 20:31:09.276,1.115328173734698,1.106916464624822,1.790177271855824,0.7968141266512093,0.893538985373848,0.2169933489565422,0.6618890443016144,0.6338457962465425,0.8819088212298134,0.7371529875968137,0.4303211172888959,1.034597364927747,1.337907300861216,0.4308581049279946,0.444710844211788,1.209254392728357,1.257793056533813,0.1179640454051029,0.1958579259302506,0.9747617482349216,813.1135531135532,801.8315018315019,787.3260073260074,802.2344322344322,715.6043956043957,-0.129028,0.221069,0.977661,4.074860,-4.874878,-1.390686,1,1,1,1,1,95.000000
2021-11-02 20:31:10.271,1.115328173734698,0.4611218139597875,1.010113773514782,1.199101700443934,0.893538985373848,0.1788201433165441,0.33386129230926,0.9871586485248408,0.8819088212298134,0.8201096720296202,0.56961147503167,1.110593646798134,1.337907300861216,0.628579922847142,0.6385531157039186,0.9202876969886374,1.257793056533813,0.3139648987087671,0.4777875396661677,0.8442429287378107,790.952380952381,796.996336996337,794.5787545787546,802.6373626373627,764.3589743589744,-0.123413,0.225586,0.975830,4.127197,-4.254303,-2.093506,1,1,1,1,1,95.000000
2021-11-02 20:31:11.271,1.171066809042315,0.09471981183088928,0.5424727635189123,0.9116407661670494,0.5990854508814438,0.06624316939430276,0.07630874734483349,0.6349711118842313,1.050805628744148,0.661224468945363,0.4663478980174981,1.119617715685673,1.274632302006544,0.5139983303126703,0.5286324609628043,1.036342149770216,1.147632128428544,0.1542575437807724,0.4976356136576269,0.8392208278755754,802.2344322344322,796.5934065934066,803.8461538461539,830.4395604395604,790.1465201465202,-0.134888,0.215698,0.974854,5.001984,-4.029999,-0.934601,1,1,1,1,1,95.000000
2021-11-02 20:31:12.271,0.2482944551845075,-0.1172541129299278,-0.3286800621811285,0.4405818552917531,0.4853305603539003,-0.2023607654588314,-0.5097242442349158,0.3295320295646145,0.8858422728427393,0.2942001796404387,0.28285498241636,0.9829317992835194,1.372816036880871,0.3387673998748632,0.3122810907662451,1.075980449785869,1.334583837631827,0.1402336126733684,0.2185810383049492,0.8037625797536117,800.2197802197802,802.6373626373627,795.7875457875458,794.981684981685,780.4761904761905,-0.114990,0.217957,0.975220,4.949646,-5.487976,-2.026215,1,1,1,1,1,100.000000
2021-11-02 20:31:13.271,0.407471280725994,0.0549952091592165,-0.04800474576108035,0.5619193087284121,0.4686450059581236,-0.1504111571149553,-0.05633388385634826,0.2135936138252841,0.8298068481222911,0.04357128865843508,0.1356393752331271,0.684721454694447,1.296722109390746,0.2704434851926819,0.1975854243059288,0.9810687521346421,1.247327160767457,0.1479058270402297,0.0412146648811073,0.74098107490777,778.0586080586081,796.996336996337,797.3992673992674,800.6227106227107,651.941391941392,-0.119507,0.223633,0.980286,4.545898,-4.119720,-0.545807,1,1,1,1,1,100.000000
2021-11-02 20:31:14.271,0.7793641854454378,0.3315615611284743,0.03790984174971687,0.4741762121609121,0.717871748859515,-0.05397784784192223,0.07073385400022816,0.494872582277633,1.002151805250096,0.2109017255776965,0.0703153745511228,1.051002417592255,1.112419173182877,0.1759981206436549,0.1900503483574087,1.006651535575147,1.139322673827833,-0.04025286150335586,0.03207816557491176,0.7211122078600513,764.7619047619048,851.7948717948718,799.0109890109891,750.2564102564103,750.2564102564103,-0.122559,0.221436,0.978088,4.015045,-4.306641,-1.069183,1,1,1,1,1,100.000000
2021-11-02 20:31:14.387,,,,,,,,,,,,,,,,,,,,,,,,,,,,,,,,,,,,,,/muse/elements/blink
2021-11-02 20:31:15.270,0.9394171738691807,1.388344037842174,1.0683169187693,0.5473828216771305,0.9040260832438806,1.051961810638014,0.7634749083492175,0.460190069261337,0.9058745862544523,0.8343825304115603,0.6376282098946885,1.028634586613769,1.149611309581327,0.3718468589631341,0.2991266361707581,0.9713484032978108,1.016014636463398,0.05325980879675998,0.1707855272613087,0.6102654843988499,794.981684981685,797.8021978021978,798.6080586080586,793.7728937728938,869.5238095238095,-0.119263,0.222900,0.985718,4.673004,-5.069275,-0.485992,1,1,1,1,1,100.000000
2021-11-02 20:31:16.271,0.2982953843321314,1.149629773101015,0.7975227200874548,0.08475900439148584,0.1719797242565476,0.8234937108537977,0.5079373242315395,0.2339208018734453,0.5473153924292791,0.8212012306779883,0.5902670507220396,0.3869723143369627,1.036840106810555,0.2226397636608989,0.2335072247767974,0.9577633769693111,1.014205132589969,-0.07395097637502582,-0.07199972230124518,0.6975769525369594,796.1904761904763,801.4285714285714,799.4139194139194,787.7289377289378,765.5677655677656,-0.119629,0.214111,0.988098,5.084229,-5.413208,-1.472931,1,1,1,1,1,100.000000
2021-11-02 20:31:17.276,0.2717910695737244,-0.2698703435719417,-0.1932139281436444,-0.1298431034781652,0.3779014204363459,-0.3348458140025012,-0.3107023406326146,0.3707081161703055,0.7742312563120383,0.2595573799939092,0.3072011957253656,0.5245259323506233,0.9645349686014892,0.07275068395366649,0.1701911700607945,0.8591403007846876,1.005712837273054,-0.2893413836309682,-0.08826866212730509,0.5090853827138784,797.3992673992674,791.7582417582418,783.2967032967033,799.0109890109891,949.7069597069598,-0.123718,0.208984,0.983093,4.299164,-4.351501,-1.981354,1,1,1,1,1,100.000000
2021-11-02 20:31:18.271,0.2319646199446758,0.03596170610222444,0.005885224117888835,-0.1299458841086263,0.2857812573525639,-0.2571458396833659,-0.2624216563446672,0.1786436062582951,0.7712453685329141,0.3789653311391617,0.6820746242028285,0.7613444274923392,1.109906241051776,0.196847271092757,0.3618430742111958,0.7272982259088183,1.066206845070968,-0.0117679846035747,0.1691658745243832,0.6081613321821672,783.2967032967033,791.3553113553114,814.7252747252747,797.3992673992674,674.9084249084249,-0.118774,0.214233,0.989197,5.144043,-4.119720,-1.233673,1,1,1,1,1,100.000000
2021-11-02 20:31:19.271,0.7026383373904578,0.7866456757530581,0.6004389447549758,0.2989545030483888,0.5720279081037167,0.4118924353337568,0.4665334942859132,0.5011011805639026,0.9550218408257757,0.5367200387804971,0.7581805730301063,0.730624148041944,1.150865499584683,0.4164401981737628,0.4306721426168033,0.8884262186318923,1.130064066232028,0.2576621227030713,0.052021990466956,0.8612296170376827,808.2783882783883,787.7289377289378,804.6520146520147,813.1135531135532,830.8424908424909,-0.108032,0.217957,0.983154,5.263672,-4.351501,1.398163,1,1,1,1,1,100.000000
2021-11-02 20:31:20.271,0.8839999986289818,0.3707684202597163,0.2822518327740055,0.9747886108540648,0.7792125069637837,0.1668134943129476,0.2786806020708671,0.6497828627770832,1.045116447308622,0.5651856598875893,0.5474040756366241,0.7445168934034596,1.226226061180244,0.3112984521835411,0.4737501197975857,0.9790223691355929,1.314593269440975,0.08050611522338927,0.2409010007670288,0.9327341196096913,757.5091575091575,792.5641025641025,841.3186813186813,782.0879120879121,857.8388278388279,-0.086365,0.188599,1.018677,-15.536804,22.452850,56.569519,1,1,1,1,1,100.000000
2021-11-02 20:31:20.480,,,,,,,,,,,,,,,,,,,,,,,,,,,,,,,,,,,,,,/muse/elements/blink
2021-11-02 20:31:21.103,,,,,,,,,,,,,,,,,,,,,,,,,,,,,,,,,,,,,,/muse/elements/jaw_clench
2021-11-02 20:31:21.260,,,,,,,,,,,,,,,,,,,,,,,,,,,,,,,,,,,,,,/muse/elements/jaw_clench
2021-11-02 20:31:21.271,0.7565091713131622,0.5166585547893285,0.4028189084055244,0.844989251696081,0.5647453031566302,-0.01029648693302261,0.05964053840948316,0.4217350198336017,0.8085131898732353,0.3775411002905487,0.2586950554296247,0.5605828408578207,1.238345827006385,0.2864198625496072,0.4459407259306571,0.8690480133575428,1.422531664747892,0.02604591759879619,0.4081371254821437,0.8545415498273717,784.1025641025641,804.2490842490843,816.3369963369963,929.1575091575091,638.6446886446887,-0.219788,0.152466,1.010925,-2.983246,-13.839569,3.237457,1,1,1,1,1,100.000000
2021-11-02 20:31:21.480,,,,,,,,,,,,,,,,,,,,,,,,,,,,,,,,,,,,,,/muse/elements/jaw_clench
2021-11-02 20:31:22.271,0.6510663922629412,0.321456536496789,0.412481843120927,0.6751418366436523,0.493780322373629,-0.1332008278015273,0.06782602207308162,0.3672756521893509,0.6514843749758663,0.6106981688913528,0.2720906816601518,0.4631555518714094,1.274179905938901,0.6776145354867009,0.7389788863185508,0.8606703891748427,1.416825749976804,0.4745851080552808,0.7071250245329721,0.8190028760601542,840.1098901098901,803.040293040293,814.3223443223443,822.7838827838829,819.96336996337,-0.266418,0.109802,0.996216,0.710297,-6.033783,-2.915955,1,1,1,1,1,95.000000
2021-11-02 20:31:22.385,,,,,,,,,,,,,,,,,,,,,,,,,,,,,,,,,,,,,,/muse/elements/jaw_clench
2021-11-02 20:31:23.196,,,,,,,,,,,,,,,,,,,,,,,,,,,,,,,,,,,,,,/muse/elements/blink
2021-11-02 20:31:23.196,,,,,,,,,,,,,,,,,,,,,,,,,,,,,,,,,,,,,,/muse/elements/jaw_clench
