TimeStamp,Delta_TP9,Delta_AF7,Delta_AF8,Delta_TP10,Theta_TP9,Theta_AF7,Theta_AF8,Theta_TP10,Alpha_TP9,Alpha_AF7,Alpha_AF8,Alpha_TP10,Beta_TP9,Beta_AF7,Beta_AF8,Beta_TP10,Gamma_TP9,Gamma_AF7,Gamma_AF8,Gamma_TP10,RAW_TP9,RAW_AF7,RAW_AF8,RAW_TP10,AUX_RIGHT,Accelerometer_X,Accelerometer_Y,Accelerometer_Z,Gyro_X,Gyro_Y,Gyro_Z,HeadBandOn,HSI_TP9,HSI_AF7,HSI_AF8,HSI_TP10,Battery,Elements
2021-11-01 17:27:27.362,0.4705319616061658,0.5669021244281741,0.6455356947710919,1.351563657454388,0.484758172670234,0.1648166488778498,0.4955511041722492,0.859444395541512,0.8014689177107425,0.3564729987901595,0.5983715936133222,1.061726817869497,1.206729794801858,1.322805294387094,0.5987184609202223,0.9177236608852848,1.035825334663838,0.7750877770706722,0.1262792981305277,0.7977928386282632,792.967032967033,811.9047619047619,769.1941391941392,788.9377289377289,680.5494505494506,-0.054382,0.202332,0.993896,4.157104,-4.044952,-2.108459,1,1,1,1,1,80.000000
2021-11-01 17:27:28.362,0.8245984380274781,0.8017950912530951,0.9296484966179481,1.068330310200101,0.6075297724032317,0.2819477209330976,0.7657100604864584,0.766913305080822,0.877606683936113,0.5076328360922828,0.631137659666353,0.9075652338841382,1.172950145743067,1.383214015694992,0.5792948168775615,0.985271163260053,1.030065243651163,0.7234487892388146,0.3992978068405954,0.7709155479377846,751.4652014652015,770.8058608058608,780.8791208791209,803.8461538461539,799.8168498168499,-0.048706,0.191833,0.985474,4.687958,-4.979553,-2.086029,1,1,1,1,1,80.000000
2021-11-01 17:27:29.362,0.6843241597419818,0.732710937087924,0.7333637165893953,1.15759294692371,0.5322130625121191,0.4081139010452119,0.6929323032994852,1.06329510018714,0.7767390065462791,0.5368488163886479,0.6576024665599525,0.9322016816474744,1.188212829648993,1.379604476360969,0.656189803174544,0.9466886542841885,0.9900767262664373,0.8350284247185588,0.4011958816264766,0.7842967058575014,747.4358974358975,827.6190476190476,793.3699633699634,802.2344322344322,906.1904761904763,-0.044128,0.185242,0.991455,4.987030,-5.390778,-3.349609,1,1,1,1,1,80.000000
2021-11-01 17:27:30.371,0.7260484473673242,0.7783821709738776,1.169914072578831,1.325336043015191,0.3922169312810153,0.4209251394935199,1.158976072580487,1.182072923063926,0.9806876661927801,0.5553761359316796,1.389724877573541,0.9225686659540409,1.368127817002862,1.347604958780387,0.7370137776269684,1.127067956245228,1.060474619250293,0.8077760415547377,0.3841838734855893,0.9613272728787944,838.901098901099,803.040293040293,803.4432234432235,795.7875457875458,817.1428571428571,-0.057190,0.184753,0.992432,4.224396,-4.927216,-2.205658,1,1,1,1,1,80.000000
2021-11-01 17:27:31.366,0.8460947681932858,0.6785887143379368,1.186447959688882,1.811577509847833,0.4670230651177709,0.3890751417329112,1.141650486120106,1.00362888819862,1.111171669193728,0.5669700987186085,1.389724877573541,0.7792387713706183,1.298159831214251,1.322158403834125,0.6433393516358183,0.9712415990168179,1.12025385109132,0.8414795813266179,0.4274002361701357,1.221025065041666,809.8901098901099,780.4761904761905,798.2051282051282,743.4065934065934,785.3113553113553,-0.065613,0.166748,0.990112,3.618774,-4.949646,1.794434,1,1,1,1,1,80.000000
2021-11-01 17:27:32.361,0.8365236748604004,0.7674356167327723,0.8828562109388903,2.00614396685722,0.4703425641510967,0.364565762478642,0.2675570723700832,0.9498117348223682,0.9871910308705869,0.5555659072937704,0.4899332254624969,0.848166562681876,1.216977808554785,1.358344499584613,0.6028667429067144,1.079719904584165,1.076458768356036,0.7794196001701094,0.4511477523286229,1.165253832846605,765.1648351648352,811.5018315018315,795.7875457875458,802.6373626373627,828.4249084249085,-0.082458,0.150208,0.997375,5.203857,-4.852448,-2.646790,1,1,1,1,1,80.000000
2021-11-01 17:27:33.367,0.8207838774397666,0.7527405437904796,0.7231076272168334,2.080115834695546,0.4105775300372257,0.4970442537641601,0.7009858530299147,0.9367481062400985,0.9216317750715899,0.5059775371695553,1.007318881824144,0.7510885703665915,1.227767915488019,1.237585838917696,1.076507299353511,1.11283190614228,1.095687914364778,0.8126105094773205,0.76715807026214,1.058383646078134,816.3369963369963,792.967032967033,798.2051282051282,938.8278388278388,1008.534798534799,-0.098877,0.120422,1.023743,2.654266,-6.362762,-13.211517,1,1,1,1,1,80.000000
2021-11-01 17:27:34.361,0.8623586182483839,1.145468214924923,0.7506433217647757,2.080115834695546,0.650981676111128,0.9925515301209578,0.4962019967439613,0.9367481062400985,0.8860954116223438,0.6834725050466421,0.9665175006037249,0.7510885703665915,1.224178548398061,1.204029325426845,0.874170310508214,1.11283190614228,1.231001135825774,0.8490359925743658,0.7537161808202636,1.058383646078134,595.1282051282052,675.7142857142858,936.007326007326,536.7032967032967,215.5677655677656,-0.116516,0.135803,0.987976,0.598145,17.989197,45.219727,1,1,1,1,1,80.000000
2021-11-01 17:27:34.537,,,,,,,,,,,,,,,,,,,,,,,,,,,,,,,,,,,,,,/muse/elements/blink
2021-11-01 17:27:35.363,0.9316960916887329,1.390364606639787,0.8430445092463622,2.080115834695546,0.8049246830955751,1.285383312473006,0.529126501953322,0.9367481062400985,0.7130877008218809,0.6834406813457682,0.3648209899097701,0.7510885703665915,1.334221032922213,1.168427919742338,0.6974648140375043,1.11283190614228,1.310415014292682,0.7818002715363755,0.8355963140841546,1.058383646078134,797.3992673992674,792.5641025641025,784.9084249084249,784.9084249084249,945.2747252747253,-0.130005,0.119019,0.989441,5.577698,-5.697327,-4.433746,1,1,1,1,1,85.000000
2021-11-01 17:27:36.362,0.759172080096097,0.3820865003641101,1.080278749426632,2.080115834695546,0.6143775424940584,0.1834101505368055,0.4643478729824656,0.9367481062400985,0.9261764144851373,0.2220260989159934,0.233013709896041,0.7510885703665915,1.308293594688512,1.242913688485646,0.3473276062509176,1.11283190614228,1.285760695882772,0.6601468878709237,0.4254891287234283,1.058383646078134,796.996336996337,803.040293040293,781.2820512820513,778.0586080586081,829.2307692307693,-0.116333,0.108948,0.994507,4.448700,-6.631927,-2.953339,1,1,1,1,1,85.000000
2021-11-01 17:27:36.791,,,,,,,,,,,,,,,,,,,,,,,,,,,,,,,,,,,,,,/muse/elements/jaw_clench
2021-11-01 17:27:36.971,,,,,,,,,,,,,,,,,,,,,,,,,,,,,,,,,,,,,,/muse/elements/jaw_clench
2021-11-01 17:27:37.063,,,,,,,,,,,,,,,,,,,,,,,,,,,,,,,,,,,,,,/muse/elements/blink
2021-11-01 17:27:37.361,0.7702540345630061,0.7069818017955746,0.7737037666858669,2.080115834695546,0.8069451957797852,0.8309213922936626,0.4695280229999158,0.9367481062400985,1.008319201392634,0.3390091447331314,0.3799240770346928,0.7510885703665915,1.327392090104336,1.220594296617618,0.5282727883898602,1.11283190614228,1.285580166296077,0.6583039612446321,0.3541029420330864,1.058383646078134,761.1355311355312,778.4615384615385,768.3882783882784,847.7655677655678,1091.135531135531,-0.088257,0.106689,0.997437,8.897400,-4.074860,-16.404114,1,1,1,1,1,85.000000
2021-11-01 17:27:38.362,0.7750149598104559,0.720683915081357,0.6056204008085672,2.080115834695546,0.9053383669873292,0.707731644110676,0.486026325951204,0.9367481062400985,0.9738877969484639,0.1998217406671213,0.3720147263669086,0.7510885703665915,1.332663836491191,1.257961974228438,0.6580629064121762,1.11283190614228,1.300373875851732,0.6374178601724952,0.2070508545036384,1.058383646078134,760.3296703296703,829.6336996336996,812.7106227106227,757.9120879120879,712.7838827838829,-0.102539,0.117004,1.000427,5.570221,-3.394470,-1.988831,1,1,1,1,1,85.000000
2021-11-01 17:27:39.366,0.3908816265507662,0.6423843505251099,0.4805746645167344,2.080115834695546,0.4796670652703953,0.3625173720658528,0.4091322822475874,0.9367481062400985,1.12447394847364,0.5117930141521506,0.4023347354033733,0.7510885703665915,1.254659501475075,1.321696196186982,0.6386421163941383,1.11283190614228,1.064729845884613,0.5893402859125554,0.5587487041824452,1.058383646078134,808.2783882783883,782.4908424908425,777.6556776556777,789.7435897435897,958.974358974359,-0.107300,0.121643,0.996948,4.583282,-4.613190,-0.575714,1,1,1,1,1,85.000000
2021-11-01 17:27:40.362,0.3127587484736354,0.6412832652677797,0.3231522031476914,2.080115834695546,0.4255022552646935,0.2136056435998599,0.2999485698153177,0.9367481062400985,1.127747821155614,0.5233106528535167,0.5223359816566797,0.7510885703665915,1.185982204745882,1.256877974107175,0.5819835724125887,1.11283190614228,1.014558259715888,0.7346326895803408,0.463724807273067,1.058383646078134,619.7069597069598,674.5054945054945,844.9450549450549,699.4871794871796,1029.084249084249,-0.107117,0.121582,1.004272,3.977661,2.086029,-1.405640,1,1,1,1,1,85.000000
2021-11-01 17:27:40.543,,,,,,,,,,,,,,,,,,,,,,,,,,,,,,,,,,,,,,/muse/elements/blink
2021-11-01 17:27:41.236,,,,,,,,,,,,,,,,,,,,,,,,,,,,,,,,,,,,,,/muse/elements/jaw_clench
2021-11-01 17:27:41.326,,,,,,,,,,,,,,,,,,,,,,,,,,,,,,,,,,,,,,/muse/elements/blink
2021-11-01 17:27:41.361,0.5434910630134834,0.5866429204475471,0.3486740458652479,2.080115834695546,0.1641735788480747,-0.02512830757770467,0.1069970022098584,0.9367481062400985,0.5661057664573872,0.4296366081401917,0.4207752733338974,0.7510885703665915,1.280221516689625,1.211628020574373,0.4783893940651994,1.11283190614228,0.9415487599086942,0.8201423317403771,0.584550661368855,1.058383646078134,826.007326007326,851.7948717948718,796.996336996337,721.6483516483516,1062.930402930403,-0.168213,0.127319,0.977539,8.800201,-6.033783,-18.886414,1,1,1,1,1,85.000000
2021-11-01 17:27:42.362,0.5434910630134834,0.6905583089752326,0.4304110323406675,2.080115834695546,0.1641735788480747,0.1047031184721945,0.08827103070351253,0.9367481062400985,0.5661057664573872,0.4296366081401917,0.3586979584170611,0.7510885703665915,1.280221516689625,1.241247523624104,0.4613804576378244,1.11283190614228,0.9415487599086942,0.8087244920819486,0.6091683865457307,1.058383646078134,776.8498168498169,795.3846153846154,772.8205128205128,719.2307692307693,674.9084249084249,-0.175415,0.138916,0.984253,4.710388,-6.086121,-0.986938,1,1,1,1,1,85.000000
2021-11-01 17:27:42.462,,,,,,,,,,,,,,,,,,,,,,,,,,,,,,,,,,,,,,/muse/elements/jaw_clench
2021-11-01 17:27:42.682,,,,,,,,,,,,,,,,,,,,,,,,,,,,,,,,,,,,,,/muse/elements/jaw_clench
2021-11-01 17:27:42.969,,,,,,,,,,,,,,,,,,,,,,,,,,,,,,,,,,,,,,/muse/elements/blink
2021-11-01 17:27:43.361,0.5434910630134834,0.6905583089752326,0.4304110323406675,2.080115834695546,0.1641735788480747,0.1047031184721945,0.08827103070351253,0.9367481062400985,0.5661057664573872,0.4296366081401917,0.3586979584170611,0.7510885703665915,1.280221516689625,1.241247523624104,0.4613804576378244,1.11283190614228,0.9415487599086942,0.8087244920819486,0.6091683865457307,1.058383646078134,797.8021978021978,737.3626373626374,788.5347985347986,777.2527472527473,906.1904761904763,-0.104431,0.104248,1.005432,6.751556,-5.600128,0.859833,1,2,1,1,2,85.000000
2021-11-01 17:27:44.361,0.5434910630134834,0.6905583089752326,0.6253072893051634,2.080115834695546,0.1641735788480747,0.1047031184721945,-0.3497746578673497,0.9367481062400985,0.5661057664573872,0.4296366081401917,0.4692720218546953,0.7510885703665915,1.280221516689625,1.241247523624104,0.6934920272846825,1.11283190614228,0.9415487599086942,0.8087244920819486,0.7271699455650916,1.058383646078134,726.4835164835165,788.9377289377289,762.7472527472528,740.989010989011,883.2234432234433,-0.101318,0.094238,1.005432,5.069275,-6.332855,-1.734619,1,2,1,1,2,85.000000
2021-11-01 17:27:45.368,0.7750925979349943,0.9786728156855105,0.8094331988061,2.080115834695546,0.4959746561979379,0.7832183086072464,0.2831621305309505,0.9367481062400985,0.7780699353231458,0.3696570212984672,0.7837131352878647,0.7510885703665915,1.263327403262641,1.154741770952176,0.7048291073646474,1.11283190614228,1.376173944136401,0.5659226110420144,0.6860049496335044,1.058383646078134,774.0293040293041,788.9377289377289,778.4615384615385,790.952380952381,834.4688644688645,-0.061340,0.093262,1.004272,4.822540,-7.506714,-2.332764,1,1,1,1,1,85.000000
2021-11-01 17:27:46.361,1.090081267545345,0.8365610823299344,0.9050180191360681,1.220428420413092,0.9561600177469644,0.5636692641405386,0.5447587733032166,1.277184906732659,1.042569899290416,0.592397613700516,0.6974260515118118,1.040986612545564,1.19549680083072,1.152888075960419,0.6319738364777416,1.132199846356908,1.296682362187487,0.6076349150606208,0.6190105788823362,0.789941483555395,777.6556776556777,774.8351648351648,790.952380952381,777.2527472527473,844.1391941391942,-0.054810,0.097351,1.002563,4.919739,-3.895416,-2.347717,1,1,1,1,1,85.000000
2021-11-01 17:27:47.361,1.45633864483162,0.939666376480718,1.165625744057329,1.566471326684365,1.122955005560685,0.603749154246201,0.688371295967886,1.24262853091069,1.211769917651411,0.7877012968635068,0.6233488830541403,1.081833532571111,1.189954047199079,1.236030623567412,0.5032404614569518,1.191429201593792,1.27855032666089,0.5647294297304472,0.5201328404019654,1.000317400013587,783.6996336996338,822.7838827838829,783.2967032967033,773.6263736263736,603.5897435897436,-0.071716,0.104126,1.002991,5.114136,-4.934692,-1.001892,1,1,1,1,1,85.000000
2021-11-01 17:27:48.364,,,,,,,,,,,,,,,,,,,,,,,,,,,,,,,,,,,,,,/muse/elements/blink
2021-11-01 17:27:48.366,1.184183814722004,0.5678534495629806,0.7218268901625935,1.674743129635842,0.6010154337542922,0.371239424596749,0.09098833555890504,1.05934617769591,1.08578531901152,0.7039398209473757,0.385877477093139,1.028863300226891,1.182733087357875,1.183168268943414,0.3664911255215146,1.054616502950738,1.27707470486248,0.5950665586988064,0.3490103420210851,1.015929979445702,839.7069597069598,781.6849816849817,778.4615384615385,785.7142857142858,657.985347985348,-0.114624,0.090088,1.005615,2.168274,0.508423,22.736969,1,1,1,1,1,85.000000
2021-11-01 17:27:49.053,,,,,,,,,,,,,,,,,,,,,,,,,,,,,,,,,,,,,,/muse/elements/blink
2021-11-01 17:27:49.361,0.6728571808146908,0.4149397371292033,0.1734765770392521,1.282934282888725,0.07948271697609306,0.004462030581311748,-0.1424427872454795,0.6013655596261334,0.7203300611233158,0.475778741358836,0.1091745548659375,0.8250813921219039,1.078094022689321,1.12694517223242,0.2911712262927725,0.9038417084336634,1.254488666576413,0.5678208905586329,0.2322624318871038,0.9002967781314877,786.9230769230769,775.2380952380953,775.6410256410256,802.2344322344322,894.908424908425,-0.085876,0.086182,1.003479,4.187012,-5.181427,-6.071167,1,1,1,1,1,85.000000
2021-11-01 17:27:50.361,0.6728571808146908,0.4697441346779169,0.1661386442348773,1.282934282888725,0.07948271697609306,-0.02552036889579332,0.3389342720915333,0.6013655596261334,0.7203300611233158,0.3561253282290716,-0.03870693186951196,0.8250813921219039,1.078094022689321,1.149572756872161,0.3286021077520895,0.9038417084336634,1.254488666576413,0.5535913799278536,0.547869755604353,0.9002967781314877,771.2087912087912,810.6959706959707,777.2527472527473,772.4175824175825,699.4871794871796,-0.078796,0.083923,1.011292,4.830017,-5.151520,0.553284,1,1,1,1,1,85.000000
2021-11-01 17:27:51.362,0.3582786952578794,0.1403911782423832,-0.04803135084420606,1.111384238851523,0.624174860295604,-0.04444310262122181,0.03917830225186333,1.030881226884572,0.9504815420858695,0.3513621185408189,0.269536117532009,0.9360259987415479,1.038242666231515,1.124137742033511,0.3027013819894579,0.853029519064028,1.076835058163434,0.5366328031953997,0.444227487462146,0.8016835984452559,785.3113553113553,771.2087912087912,789.7435897435897,801.4285714285714,964.2124542124542,-0.076660,0.076965,1.003174,4.815063,-3.611298,-2.362671,1,1,1,1,1,85.000000
2021-11-01 17:27:52.361,0.1790171261827455,0.1831487440662154,-0.08906449302316957,1.117218913308621,0.3173891742200765,0.1442751941405933,-0.2314657971399118,0.9184987333144147,1.056685884015572,0.37650601326358,0.2827456445092084,1.1970083153661,1.090341280412883,1.143028198846013,0.2937058643155099,0.9490202572436595,1.027648841264673,0.530334367415483,0.3889722005518482,0.9789393057082358,795.7875457875458,792.1611721611722,801.4285714285714,808.6813186813187,827.2161172161173,-0.081421,0.083618,1.008545,4.560852,-4.553375,-1.300964,1,1,1,1,1,85.000000
2021-11-01 17:27:53.361,0.2660634104647343,0.4145518915660036,0.5028915732645585,1.075856612727104,0.1826712608243905,0.2600224542337412,-0.06943528588986371,0.8502671155793874,0.9988631678795489,0.4447532839440992,0.1395341161610699,1.193373736173617,1.20707161302982,1.078608707068052,0.4343433420678403,1.160572321922824,1.039622017719558,0.5897933410501286,0.2338457540422515,1.036814899363256,764.3589743589744,803.8461538461539,784.1025641025641,766.7765567765568,774.0293040293041,-0.081360,0.079041,1.003967,4.725342,-5.473022,-1.914062,1,1,1,1,1,85.000000
2021-11-01 17:27:54.365,0.3021780917102339,0.006240770950344765,0.1761194968627576,0.8243090366185623,-0.1290801318648001,0.04305707252765271,-0.03840394015975422,0.535846273070171,0.6224971125652882,0.1452406910603246,0.1199050612152512,0.7110586270044802,1.113574590761442,1.047801369568091,0.3491276944573519,1.079764686556747,0.9401989472394585,0.5580958774975022,0.2269339969040224,0.9704131369193323,754.2857142857143,800.2197802197802,770.8058608058608,739.7802197802198,801.8315018315019,-0.080872,0.075378,1.007751,5.562744,-3.858032,-1.749573,1,1,1,1,1,85.000000
2021-11-01 17:27:55.360,0.7945356146620666,0.2378166892690044,-0.007146590949341304,1.224543376406657,0.563637445746044,0.1919768582022111,-0.07370072364098491,0.8083388295905609,0.8992599209566965,0.2956916701874219,0.4589418177488185,0.9752846531353785,1.002955073108087,1.047298278751283,0.4532823651564854,0.9831093476344286,0.9190356908921411,0.4086350299512214,0.3143528707186762,0.9924398556273196,817.1428571428571,798.6080586080586,781.6849816849817,761.5384615384615,799.4139194139194,-0.092468,0.076111,0.999268,5.353394,-5.360870,-1.480408,1,1,1,1,1,85.000000
2021-11-01 17:27:56.361,0.8416734059831789,0.268107137700739,0.1812225687244775,1.345144056260392,0.5869693399877915,0.1201284284783482,-0.1196843185630482,0.7032618621930423,0.8558673430490438,0.4895647283355071,0.4647130754723108,1.088081623570328,1.113736613624369,1.171703524304382,0.3998110552672662,1.093019339491659,0.8533417316771286,0.5128980131501919,0.28067820644036,0.9358704846064587,782.893772893773,816.3369963369963,785.3113553113553,796.1904761904763,736.959706959707,-0.083923,0.083984,1.008118,4.844971,-4.276733,-1.906586,1,1,1,1,1,85.000000
2021-11-01 17:27:57.361,0.5213440048489748,0.3268537262573477,0.1645046796169326,1.195922890869567,0.5015479791044094,0.02253658270324847,0.187118855143584,0.6317293937478334,0.7942082032948327,0.4434612900135897,0.3059831776488225,0.8571911324479898,1.061892913003987,1.131118695279312,0.520229422583998,1.06249773180201,0.8804659101598022,0.6380838001283127,0.3356328119420338,0.8452325758120667,770.8058608058608,780.8791208791209,788.5347985347986,776.4468864468864,798.6080586080586,-0.096313,0.077942,1.004883,4.979553,-5.517883,-1.914062,1,1,1,1,1,85.000000
2021-11-01 17:27:58.361,0.3782154429163688,0.5366514161234542,0.3340224125942828,0.7348422092474098,0.5082238393818019,0.2387051074127536,0.2559019794358446,0.7066434456725775,0.7304366814222352,0.609315418791076,0.1420640603555814,0.757395568022788,1.002547544833004,1.082761017623217,0.5144858224981647,1.023156836435098,0.8488961467629219,0.6816738169500427,0.4029386509913703,0.7106827818528907,801.025641025641,777.6556776556777,781.2820512820513,780.4761904761905,854.6153846153846,-0.081848,0.075073,0.999756,4.456177,-6.721649,-1.181335,1,1,1,1,1,85.000000
2021-11-01 17:27:59.361,0.4730013724123581,0.4662445366116632,0.1176316255673562,1.364548026016682,0.3202823588806038,0.122270055997909,-0.02379305035037028,0.7252812673488852,0.7404316404609645,0.539320346338877,0.6802771411049846,1.121580412026739,1.037290770756942,1.082105370330448,0.3352256826983953,1.060363069790262,0.8764830062475025,0.5679306671148531,0.2339572490387418,0.8515539659000508,782.0879120879121,797.3992673992674,788.5347985347986,768.3882783882784,786.9230769230769,-0.089233,0.076782,1.007080,4.882355,-5.286102,-2.056122,1,1,1,1,1,85.000000
2021-11-01 17:28:00.361,0.4955242621063751,0.5241676822591287,0.06368933342747586,1.397285646980204,0.6326073973732119,0.113443951596174,0.1551023695124319,0.9907121263088031,0.8213160147316786,0.2941829656897919,0.6902798395408694,1.089446413271821,1.008769421421345,1.078495534321037,0.5390700426410431,0.9641175585255516,0.8146657977582302,0.4380565151533991,0.1482884750807808,0.896413036365179,805.0549450549451,788.9377289377289,783.2967032967033,791.7582417582418,905.3846153846154,-0.085693,0.083069,1.001099,4.269257,-4.583282,-1.413116,1,1,1,1,1,85.000000
2021-11-01 17:28:01.361,0.07727227581417523,0.3120050723432228,0.04693947265508423,0.8132707724695172,0.5031585741542524,-0.03918749778891158,0.07512889020709942,0.7887819502687161,0.5228243100636255,0.4209854290650719,0.193224546031608,0.537106236069351,0.9198160570501241,1.075002827393542,0.4030992742913389,0.7565495599163032,0.8173803446567013,0.437550844713362,0.1612284350634913,0.7050938704537761,786.9230769230769,803.8461538461539,788.9377289377289,806.2637362637363,852.1978021978023,-0.072815,0.081482,1.006470,5.555267,-5.659943,-2.534637,1,1,1,1,1,85.000000
2021-11-01 17:28:02.361,-0.02503051742103052,-0.07935192331085891,-0.155668998126494,0.6841694743263701,0.06557780415131957,-0.04501534733691448,-0.2954459347177454,0.3567478331009233,0.6423888780973871,0.4428410602059596,0.1340343415987497,0.6549606676919505,0.9356681850498105,1.102911078420958,0.3638711354453958,0.7136388644503358,0.8159808600192487,0.4615008729851933,0.05508482016527139,0.7439653936594521,806.2637362637363,799.0109890109891,794.1758241758242,799.8168498168499,785.7142857142858,-0.077515,0.085632,1.001282,4.276733,-5.899200,-1.465454,1,1,1,1,1,85.000000
2021-11-01 17:28:03.364,0.4857933780746012,1.537019479344881,-0.08120651845309408,0.7069573830511162,0.276846601731766,0.5292387457135892,-0.2769759914861325,0.3653630464134693,0.8441275455984907,0.6208474130378306,0.1229750886012832,0.691676128346873,0.9288909157768368,1.109683015035775,0.2530560971069991,0.8687181814518047,0.7436496969820249,0.4588464094131938,-0.09374062711727542,0.7891040146755245,770,795.3846153846154,801.025641025641,813.919413919414,895.7142857142858,-0.114807,0.098145,1.000977,4.919739,-8.396454,-0.560760,1,1,1,1,1,85.000000
2021-11-01 17:28:04.361,1.164556378655008,1.787109800912364,0.3114109759071553,0.9373865004516537,0.7915098328075985,0.7992217400546778,0.2971940230922681,0.5462257121139467,0.971250704288723,0.7248067444689699,0.5442001754688066,0.6409895734287099,1.056199529245766,1.17757721483833,0.4607690815793222,0.9107021139212066,0.8265042369359114,0.4947191461134072,0.2110961484102872,0.7670438845410649,819.1575091575091,796.996336996337,778.8644688644689,608.8278388278388,779.6703296703297,-0.089294,0.078735,1.002502,5.151520,-5.144043,-1.749573,1,1,1,1,1,85.000000
2021-11-01 17:28:05.361,1.245824327302261,1.110215403823825,0.3062510307019264,1.019556934079426,0.725375817866903,0.5656887557801413,0.2727490129762005,0.5935138838474056,0.8486602545512645,0.6080350169515109,0.6049691091553655,0.6395687372336279,0.9369298667263123,1.117730932382391,0.5099842747558292,0.9505756574915426,0.9213025217565395,0.57239408415327,0.3952472432984952,0.7891311381839643,787.3260073260074,830.0366300366301,792.1611721611722,826.4102564102565,854.6153846153846,-0.071716,0.072876,1.005371,4.874878,-6.519775,-3.858032,1,1,1,1,1,85.000000
2021-11-01 17:28:06.361,0.9496401120022775,1.380632076375584,0.103226928240686,1.019556934079426,0.2477055875734976,0.7547598395874003,-0.0112517343192153,0.5935138838474056,0.7797800453604834,0.4959878863078017,0.2956789714512192,0.6395687372336279,0.9152210268798401,1.129590043718095,0.3081944332691242,0.9505756574915426,0.9892212221699025,0.7853528866487325,0.310733047781489,0.7891311381839643,770.8058608058608,847.7655677655678,805.0549450549451,809.8901098901099,833.2600732600733,-0.045105,0.087585,1.008972,2.280426,-5.876770,-1.480408,1,1,1,1,1,80.000000
2021-11-01 17:28:07.361,1.038435639232094,1.695774679276436,0.3707867499217666,1.019556934079426,0.1383972697361323,0.5183612146308731,0.1629069136892496,0.5935138838474056,1.254600643281381,0.4230597787172917,0.4002478428603597,0.6395687372336279,1.196651536003787,1.115599111827559,0.4682005298434795,0.9505756574915426,1.188822039947216,0.8387176568086784,0.5764266199863607,0.7891311381839643,807.4725274725275,786.5201465201466,789.7435897435897,804.6520146520147,883.2234432234433,-0.061035,0.068848,1.008362,4.934692,-5.084229,-1.966400,1,1,1,1,1,80.000000
2021-11-01 17:28:08.361,0.8868357295785565,1.414037837352221,0.5159267666893674,1.072817457595151,0.3851659880039554,0.2647565187681626,0.1253005614789392,0.489844370498529,1.249712776012306,0.5714032137406557,0.4040874949096912,1.019712912868511,1.264223598358831,1.05713586247591,0.6597193313056291,1.112204777027936,1.107560665561135,0.5434602429422898,0.6121788965940118,1.021327081449143,728.901098901099,803.040293040293,757.5091575091575,730.1098901098901,761.941391941392,-0.060669,0.070557,1.006531,4.964600,-2.557068,-2.086029,1,1,1,1,1,80.000000
2021-11-01 17:28:08.463,,,,,,,,,,,,,,,,,,,,,,,,,,,,,,,,,,,,,,/muse/elements/blink
2021-11-01 17:28:09.363,0.2274498982257958,1.398074665898884,0.5139556075891033,0.8526811903779044,0.3050737320266581,0.8866195782293573,-0.2143007959477591,0.6407873672281947,0.4428874979921377,0.6303291320427969,0.3487979422282879,1.018681640944462,1.207504095448343,1.148460824046305,0.6674033025130304,1.099480711121457,0.9876132205242064,0.6972108686231352,0.3758785779857363,0.9621685988217871,765.9706959706959,789.3406593406594,792.1611721611722,794.5787545787546,753.8827838827839,-0.075134,0.062439,1.004150,3.618774,-5.435638,-1.951447,1,1,1,1,1,80.000000
2021-11-01 17:28:10.361,1.074133721282474,1.147858274151148,0.2849976880480382,1.179020727787256,0.8779355929208972,0.7066241375666102,-0.1140387132619689,1.173760398895212,1.208314079592168,0.4755255740611758,0.5409694137680681,1.037558741451414,1.244994135153854,1.174400478743555,0.5907325896884363,1.099651380489023,1.19645373895417,0.5844849186525891,0.6483708222076054,1.104671902749644,796.5934065934066,790.5494505494506,811.0989010989011,787.3260073260074,668.0586080586081,-0.060608,0.055176,1.011597,4.777679,-4.538422,-0.919647,1,1,1,1,1,80.000000
2021-11-01 17:28:11.361,1.130869912118552,0.4216572058653642,0.429830303381988,1.039065317148395,0.7962170195377066,0.3132552929692156,-0.04076993911949527,1.136660140882148,1.205281905310011,0.4418506905112038,0.3719985792030846,1.01538242180271,1.061747667045597,1.064464004621916,0.6625425083601303,1.122781828438643,1.228659711162502,0.5085324664288801,0.664039658898239,1.096887396920549,801.8315018315019,813.1135531135532,790.5494505494506,750.2564102564103,742.1978021978023,-0.058716,0.062134,1.006775,5.256195,-4.792633,-0.269165,1,1,1,1,1,80.000000
2021-11-01 17:28:12.361,0.2287446325148046,0.6262358573417981,0.6010457303991535,1.111942444417334,0.2257551997403533,0.4119385248878945,-0.1138520959842969,0.7736198227118188,0.791429267765249,0.423179861350743,0.4119138695307417,1.127055714630657,1.162029799358868,1.03537432810472,0.6171039443655979,1.149467303849883,1.138772302194774,0.606183328838569,0.4351982327728817,0.8719359433447199,705.934065934066,606.007326007326,869.1208791208792,783.6996336996338,990.8058608058608,-0.076843,0.059814,1.022278,-3.715973,1.443024,34.946594,1,1,1,1,1,80.000000
2021-11-01 17:28:12.420,,,,,,,,,,,,,,,,,,,,,,,,,,,,,,,,,,,,,,/muse/elements/blink
2021-11-01 17:28:13.361,0.1218092431531291,0.6088130636448852,0.74249580784433,1.451116788079631,0.2275203592464455,0.5631799469361943,-0.2193421280184962,0.949202419713137,0.6876507179061147,0.3236321443190753,0.2965551263027047,1.085224668037291,1.198427322066157,0.9760990859013109,0.5509507996278794,1.241761553164266,1.184827127027474,0.7324262105522068,0.4747198842895912,0.7027255920633588,799.4139194139194,787.3260073260074,789.3406593406594,786.1172161172161,611.6483516483516,-0.089111,0.054443,0.992920,8.261871,-7.693634,-7.125397,1,1,1,1,1,80.000000
2021-11-01 17:28:14.361,0.7049402725409433,0.7805031782926776,0.5430304249483164,1.451116788079631,0.5029989150602121,0.02802328393237048,0.1825137041288538,0.949202419713137,0.8529500858802104,0.2852921310967507,-0.03963222490407184,1.085224668037291,1.142182765988962,1.059857194679814,0.5765393471706994,1.241761553164266,0.9090040385713526,0.7638961820130261,0.3810647179909712,0.7027255920633588,792.967032967033,797.3992673992674,792.967032967033,806.2637362637363,821.978021978022,-0.121887,0.012939,1.016418,8.157196,-3.603821,-8.613281,1,1,1,1,1,80.000000
2021-11-01 17:28:15.366,1.106091358141328,1.319537342647342,0.8824619939049869,1.451116788079631,1.245147975258324,0.8635630992557353,0.4920670212538933,0.949202419713137,1.138815430001406,1.023538310176404,0.6568476333111295,1.085224668037291,1.044406722549007,1.015556135251311,0.3140493304012665,1.241761553164266,0.9307908736124719,0.5210350287852308,0.07238074647905537,0.7027255920633588,784.1025641025641,790.952380952381,799.8168498168499,744.2124542124542,855.4212454212454,-0.113159,0.022949,0.995850,4.844971,-4.059906,-3.858032,1,1,1,1,1,80.000000
2021-11-01 17:28:16.366,0.6564119431811826,1.550049581979861,1.227525727233651,1.451116788079631,1.01980648377872,1.074180498182356,0.6531944959510297,0.949202419713137,1.206820578873626,1.023538310176404,0.7714223685194406,1.085224668037291,1.208518845776228,1.075039017733311,0.5279244601767146,1.241761553164266,1.114303623392523,0.3497391353524077,0.3227695416019756,0.7027255920633588,739.7802197802198,786.5201465201466,816.7399267399268,800.2197802197802,804.2490842490843,-0.149841,0.040771,1.009644,6.377716,-8.388977,-5.218811,1,1,1,1,1,85.000000
2021-11-01 17:28:17.084,,,,,,,,,,,,,,,,,,,,,,,,,,,,,,,,,,,,,,/muse/elements/blink
2021-11-01 17:28:17.361,0.9152825810942513,1.17415898620181,1.505743482696695,1.451116788079631,0.6074471778150681,0.3935870916953408,0.596614239938375,0.949202419713137,1.073893376040988,0.4060486636421595,0.6690103928614421,1.085224668037291,1.300063639428845,1.071666759918742,0.5905136149886466,1.241761553164266,1.321496157730162,0.3391103374379062,0.4953478900520231,0.7027255920633588,765.9706959706959,794.1758241758242,807.0695970695971,803.040293040293,767.1794871794872,-0.064697,0.055481,0.958374,10.041351,-6.736603,-15.237732,1,1,1,1,1,85.000000
2021-11-01 17:28:18.367,1.171114479663817,0.9747940454500139,1.615161055129446,1.451116788079631,0.5977219864731337,0.8785854418499472,0.5368532353078784,0.949202419713137,0.8357694097726375,0.3415991903702957,0.450632242635152,1.085224668037291,1.299230398314118,1.008130150171824,0.527935648315274,1.241761553164266,1.344298091466328,0.5004643409634199,0.3374776602962869,0.7027255920633588,802.2344322344322,802.2344322344322,788.5347985347986,732.1245421245421,765.9706959706959,-0.101929,0.038086,1.011475,4.777679,-7.327271,-4.867401,1,1,1,1,1,85.000000
2021-11-01 17:28:19.117,,,,,,,,,,,,,,,,,,,,,,,,,,,,,,,,,,,,,,/muse/elements/blink
2021-11-01 17:28:19.366,1.162193766897395,1.015681398152316,0.5572798588917902,1.451116788079631,0.5408713775461863,0.7032310406239465,-0.02561472478030451,0.949202419713137,1.100539105559236,0.4878200681418082,0.2996796079362326,1.085224668037291,1.323132156359534,1.038065031160583,0.4346698482528554,1.241761553164266,1.443896964327934,0.468426572988951,0.4941427378223319,0.7027255920633588,813.919413919414,806.6666666666667,779.2673992673992,832.4542124542124,997.2527472527473,-0.091675,0.032349,0.967896,4.673004,-4.179535,13.196564,1,1,1,1,1,85.000000
2021-11-01 17:28:20.236,,,,,,,,,,,,,,,,,,,,,,,,,,,,,,,,,,,,,,/muse/elements/jaw_clench
2021-11-01 17:28:20.361,1.251334615833519,1.097912811594677,0.3997750233465243,1.451116788079631,0.6085259425415634,1.228695178127698,0.02852490847033656,0.949202419713137,1.044488043216483,0.4764130242252511,0.0610566544810881,1.085224668037291,1.403861929220948,0.8771763419419978,0.5092364199923002,1.241761553164266,1.48210624302241,0.6999016335197592,0.5702271551449464,0.7027255920633588,797.8021978021978,798.2051282051282,795.3846153846154,773.2234432234433,792.1611721611722,-0.128601,0.046936,0.995361,9.338531,-6.250610,-16.628418,1,1,1,1,1,85.000000
2021-11-01 17:28:20.943,,,,,,,,,,,,,,,,,,,,,,,,,,,,,,,,,,,,,,/muse/elements/blink
2021-11-01 17:28:21.373,1.251334615833519,1.20805545410985,0.4109884486233627,1.451116788079631,0.6085259425415634,1.455193171107082,0.4793653581736764,0.949202419713137,1.044488043216483,0.4726081770692369,0.3675298991754619,1.085224668037291,1.403861929220948,0.9369773967803151,0.5824490806243738,1.241761553164266,1.48210624302241,0.6700853967426573,0.5002829350478746,0.7027255920633588,789.7435897435897,836.4835164835165,805.0549450549451,766.7765567765568,1228.937728937729,-0.081848,0.037231,0.937439,2.654266,-6.108551,-3.297272,1,1,1,1,1,85.000000
2021-11-01 17:28:22.361,1.251334615833519,1.268163986114,0.9076305312530804,1.451116788079631,0.6085259425415634,1.53590579973239,0.6469583193965468,0.949202419713137,1.044488043216483,0.4196949936137148,0.4441402282409402,1.085224668037291,1.403861929220948,1.015256146491582,0.6942909049510234,1.241761553164266,1.48210624302241,0.5912957120943665,0.4082277428242685,0.7027255920633588,777.2527472527473,780.8791208791209,799.0109890109891,799.0109890109891,709.9633699633699,-0.075073,0.041504,1.005005,4.987030,-6.534729,-11.237640,1,2,1,1,2,85.000000
2021-11-01 17:28:23.364,1.251334615833519,1.450719693752513,0.6916206985219405,1.451116788079631,0.6085259425415634,0.8823384886015738,0.5554551510314564,0.949202419713137,1.044488043216483,0.6758336547350937,0.3912242487140276,1.085224668037291,1.403861929220948,0.8805100342450318,0.5906001458797996,1.241761553164266,1.48210624302241,0.6174107657063613,0.3038452773183088,0.7027255920633588,774.0293040293041,797.3992673992674,800.2197802197802,779.2673992673992,695.4578754578755,-0.012878,0.083801,1.041931,9.577789,-8.785248,15.170441,1,2,1,1,2,85.000000
2021-11-01 17:28:24.361,1.700679000985569,0.7072366745569564,0.5735972231367867,1.451116788079631,1.108749875487499,0.4141380228890031,0.1758429306764371,0.949202419713137,0.8258992121805121,0.7357224888834102,0.4392607493394655,1.085224668037291,1.108327737345068,0.799074051210692,0.458569203424224,1.241761553164266,1.258163688072755,0.4694877064154829,0.4491830910078721,0.7027255920633588,780.8791208791209,793.3699633699634,784.1025641025641,778.8644688644689,870.7326007326008,-0.032288,0.075684,1.004272,2.138367,-3.506622,1.487885,1,1,1,1,1,85.000000
2021-11-01 17:28:24.588,,,,,,,,,,,,,,,,,,,,,,,,,,,,,,,,,,,,,,/muse/elements/blink
2021-11-01 17:28:25.365,1.717802125503971,1.052310267001534,0.893593976820598,1.451116788079631,1.060311745994002,0.6825421878082255,0.3495539655718258,0.949202419713137,0.7992858719272524,0.8100539258092088,0.4566646560207707,1.085224668037291,1.051424686447577,0.9126644450454924,0.6537293571054947,1.241761553164266,1.167004292283093,0.5111518608775443,0.4790381260243926,0.7027255920633588,743.8095238095239,793.3699633699634,792.5641025641025,771.6117216117216,859.4505494505495,-0.048523,0.074524,1.011658,3.783264,-4.164581,-0.560760,1,1,1,1,1,85.000000
2021-11-01 17:28:26.361,0.8164701659223299,0.5257385692644729,0.4578160652392915,1.451116788079631,0.6117070078201139,0.59827172370565,0.2540048493272899,0.949202419713137,0.6214019956313693,0.6338766498681472,0.3030358662547954,1.085224668037291,1.394677209614124,0.9446629824864644,0.3923475898453999,1.241761553164266,1.405231029292157,0.4608793618995037,0.3634763865793321,0.7027255920633588,788.5347985347986,787.7289377289378,782.0879120879121,757.5091575091575,935.6043956043957,-0.019531,0.066833,1.010010,4.433746,-6.766510,-0.747681,1,1,1,1,1,85.000000
2021-11-01 17:28:27.361,0.3572092485578217,0.8907589684524403,0.4740363971957591,0.881111322938214,0.296450024387572,0.09266031745765682,0.350164188396706,0.6692388483976764,0.7328539018242836,0.65120802409885,0.397494318127427,0.9694960086381582,1.240065926212556,0.8647395834721715,0.4704819614888266,1.324302424705526,1.344317516525247,0.3909017124119901,0.2359121600414021,0.9953559390387846,783.6996336996338,776.0439560439561,774.4322344322345,788.5347985347986,800.6227106227107,-0.017883,0.065674,1.006042,2.811279,-5.465546,-2.482300,1,1,1,1,1,85.000000
2021-11-01 17:28:28.361,0.1591511791322378,0.5438769855267623,0.1709492811609062,0.9805862138832724,0.1418659463097711,-0.04955291337134465,0.1201758045188565,0.6794693957733191,0.8647183466308463,0.4291985019062666,0.3662776526473054,1.085358193945773,1.232484419062905,0.8582561308952509,0.275248797597782,1.125404655739941,1.102327195341432,0.4226892853704637,0.08389060688849188,0.9817960883413239,794.5787545787546,821.978021978022,789.3406593406594,772.4175824175825,706.7399267399268,-0.018860,0.058899,1.011353,4.119720,-3.551483,-2.729034,1,1,1,1,1,85.000000
2021-11-01 17:28:29.360,0.3080589323865459,0.2870186606469076,0.04418547976148732,0.9625929487421792,0.2503721778306923,0.1009089108593888,0.08087227602584042,0.777473174894392,0.7816283119332119,0.356534474834309,0.1724694553639097,1.177778547381845,1.099513954618622,0.8635647570514233,0.2264355266662704,0.977760860180742,1.048442231996871,0.5194463287094818,0.05096087169988572,0.8711466444864643,778.0586080586081,795.3846153846154,792.1611721611722,784.9084249084249,817.5457875457876,-0.033508,0.049866,1.008240,4.059906,-4.792633,-0.523376,1,1,1,1,1,85.000000
2021-11-01 17:28:30.361,0.4711473696282827,0.389209011556167,-0.07905630590117575,1.257055622488278,0.3518407419770546,0.1399562727631997,0.1421900128153059,0.8034105503042596,0.6479390257925841,0.2834566302147885,0.0417726195737864,1.031260567007498,1.073025343515382,0.8333167449823424,0.2089827106385492,1.06177325595852,1.011849636989935,0.4194489749319222,-0.007102796028038525,0.7353972708580717,832.4542124542124,790.5494505494506,791.3553113553114,761.5384615384615,912.6373626373627,-0.034851,0.033081,1.014587,6.445007,-4.919739,-4.179535,1,1,1,1,1,85.000000
2021-11-01 17:28:31.360,0.4482127823720397,0.9728617219306556,0.08934443393795803,1.36160417397343,0.3418345347823795,0.2273628859299226,-0.04813400333795885,0.6551699102108041,0.7664509255390299,0.2648900779162175,0.1038248023488285,0.777322386001406,1.160947887175894,0.7638354562846891,0.2005529971993513,0.9084657541426122,1.142146364703746,0.330127387992082,0.1071133717273291,0.6183408801818699,774.4322344322345,802.2344322344322,788.5347985347986,774.4322344322345,775.2380952380953,-0.044983,0.033508,1.021240,4.471130,-4.635620,-2.863617,1,1,1,1,1,85.000000
2021-11-01 17:28:32.361,0.217864787517427,1.002514858108984,0.2487859202464701,1.154794519197129,0.5439664474853445,0.3112870850097165,-0.03779518828586724,0.4568548684895832,0.9445847100794079,0.1298168052351503,0.4135302478084525,0.8550194943910659,1.064528627538121,0.7079806364271114,0.2676233176112617,0.7420249557425127,1.056181749281049,0.2742547904041333,0.03934075161938296,0.7550990145431956,762.7472527472528,776.0439560439561,789.7435897435897,792.967032967033,1043.186813186813,-0.046875,0.041382,1.006470,5.173950,-6.205750,-2.826233,1,1,1,1,1,85.000000
2021-11-01 17:28:33.361,0.4525261284169386,1.113983759321135,0.3030460536318854,0.8879597567497473,0.4266017157073505,0.5289224539319201,0.03801051427758818,0.444387970705152,0.9340028134508374,0.2265789766815311,0.4003831820584144,0.9424867272228805,1.091592336735788,0.8665044518561712,0.2684753692348187,0.7983559303212514,1.12155214749215,0.4095396105455372,-0.05867415847891919,0.9691348466397895,783.2967032967033,787.3260073260074,796.5934065934066,784.5054945054945,778.8644688644689,-0.040771,0.035889,1.009155,4.052429,-2.998199,-1.839294,1,1,1,1,1,85.000000
2021-11-01 17:28:34.361,0.4964622314626478,1.306642348431738,0.3197364976969737,1.393828698301431,0.4166085546766991,0.7500778716997569,0.09306193550175697,0.6143789955911885,0.7325888700470682,0.1923778567994009,0.1721313734480421,0.862252251094205,1.200387215897615,0.9098373174715887,0.202197823068603,0.8422792844959506,1.016114404368606,0.4658577544255642,-0.001561639791085956,0.8023852174192205,760.7326007326008,811.5018315018315,795.3846153846154,633.4065934065934,779.6703296703297,-0.058472,0.029785,0.998108,4.164581,0.403748,-1.801910,1,1,1,1,1,85.000000
2021-11-01 17:28:35.360,1.345841334184791,0.9748551776912178,0.2848841437643519,1.726516186447857,0.6799322216709079,0.3569892808563584,0.05451980728402525,0.7680774046993719,0.6848393922458658,0.194089899276891,0.3193035530591845,0.7814726402020852,1.062676298863295,0.8730707690712259,0.4154061682474334,0.8902971396037423,0.8101940068079875,0.4883568551331701,0.1897352682644321,0.7797766105786206,815.934065934066,799.0109890109891,792.967032967033,748.6446886446887,750.2564102564103,-0.072693,0.041931,1.013855,4.119720,-0.889740,-1.555176,1,1,1,1,1,85.000000
2021-11-01 17:28:36.367,1.295376402150717,1.107193246393851,0.2800902217155958,1.852986553908226,0.7552934415027172,0.522294796737437,0.1987108545628863,0.8674830171898896,1.04240867038941,0.4647729453129849,0.381037352607058,0.7542186256194616,1.279854184750368,1.032836967313593,0.5607945083104374,0.9358880274689108,1.151683235023129,0.5741174377561201,0.5320011650893169,0.8095260982732606,769.1941391941392,796.5934065934066,800.6227106227107,765.9706959706959,721.2454212454213,-0.042236,0.028137,0.999268,4.822540,-7.319794,-2.272949,1,1,1,1,1,85.000000
2021-11-01 17:28:37.368,0.7775779140603098,0.9939839993754951,0.2324188530427173,1.852986553908226,0.6562045087160655,0.3438279036257098,0.03958329802017717,0.8674830171898896,1.190319233561464,0.3502925472225384,0.2916370134532863,0.7542186256194616,1.416542222871839,0.9470844861879363,0.5972253252824506,0.9358880274689108,1.272728208132331,0.3648463623768927,0.5150300642336899,0.8095260982732606,775.6410256410256,821.978021978022,792.1611721611722,787.7289377289378,708.7545787545788,-0.026428,0.020996,1.013550,4.635620,-5.988922,-1.764526,1,1,1,1,1,80.000000
