TimeStamp,Delta_TP9,Delta_AF7,Delta_AF8,Delta_TP10,Theta_TP9,Theta_AF7,Theta_AF8,Theta_TP10,Alpha_TP9,Alpha_AF7,Alpha_AF8,Alpha_TP10,Beta_TP9,Beta_AF7,Beta_AF8,Beta_TP10,Gamma_TP9,Gamma_AF7,Gamma_AF8,Gamma_TP10,RAW_TP9,RAW_AF7,RAW_AF8,RAW_TP10,AUX_RIGHT,Accelerometer_X,Accelerometer_Y,Accelerometer_Z,Gyro_X,Gyro_Y,Gyro_Z,HeadBandOn,HSI_TP9,HSI_AF7,HSI_AF8,HSI_TP10,Battery,Elements
2021-11-02 20:21:56.541,0,1.774235184042822,0,1.166037482801539,0,0.4020841439497043,0,0.4241004531395343,0,0.467315917520449,0,0.5616925045404947,0,0.7545055752633096,0,0.6584079534933599,0,0.5016615034429919,0,0.3886518224696645,1191.465201465202,745.8241758241759,1158.827838827839,1199.52380952381,1078.644688644689,0.006409,0.091003,1.009827,8.882446,3.588867,0.755157,1,2,1,2,2,100.000000
2021-11-02 20:21:57.237,,,,,,,,,,,,,,,,,,,,,,,,,,,,,,,,,,,,,,/muse/elements/blink
2021-11-02 20:21:57.541,0,1.521839464898645,0,1.166037482801539,0,0.9186276239723283,0,0.4241004531395343,0,0.9543139011497845,0,0.5616925045404947,0,0.7429302309312661,0,0.6584079534933599,0,0.3224397994121418,0,0.3886518224696645,1176.556776556777,787.7289377289378,1409.85347985348,1170.10989010989,1065.347985347985,-0.010376,0.093933,1.007324,3.013153,-3.072968,-8.202057,1,2,1,2,2,100.000000
2021-11-02 20:21:58.544,0,1.938040197793254,0,1.166037482801539,0,1.293517053822474,0,0.4241004531395343,0,0.9504724525133222,0,0.5616925045404947,0,0.7279205302344005,0,0.6584079534933599,0,0.2587428907417289,0,0.3886518224696645,1202.344322344322,842.9304029304029,1012.161172161172,1231.758241758242,901.3553113553114,-0.016968,0.052490,1.003784,4.919739,-5.413208,-3.162689,1,2,1,2,2,100.000000
2021-11-02 20:21:59.546,0,1.973923019840271,0,1.166037482801539,0,0.8234631597931279,0,0.4241004531395343,0,0.5689735909692618,0,0.5616925045404947,0,0.8096386422952266,0,0.6584079534933599,0,0.2343622212104671,0,0.3886518224696645,975.8974358974359,601.978021978022,1226.520146520146,1020.622710622711,1006.117216117216,-0.027405,0.068970,1.005249,4.216919,-6.101074,7.132874,1,2,1,2,2,100.000000
2021-11-02 20:21:59.774,,,,,,,,,,,,,,,,,,,,,,,,,,,,,,,,,,,,,,/muse/elements/blink
2021-11-02 20:22:00.541,0,2.128981785851217,0,1.166037482801539,0,0.8911717526203554,0,0.4241004531395343,0,0.5752008749991677,0,0.5616925045404947,0,0.782683219917725,0,0.6584079534933599,0,0.2830138820926178,0,0.3886518224696645,1126.190476190476,832.8571428571429,1202.747252747253,1113.699633699634,987.985347985348,0.000427,0.077332,1.004883,4.231873,-5.779572,-0.119629,1,2,1,2,2,100.000000
2021-11-02 20:22:01.370,,,,,,,,,,,,,,,,,,,,,,,,,,,,,,,,,,,,,,/muse/elements/blink
2021-11-02 20:22:01.542,0,1.353606596257349,0,1.166037482801539,0,0.6366868444337712,0,0.4241004531395343,0,0.6620580508042646,0,0.5616925045404947,0,0.5439578994462981,0,0.6584079534933599,0,0.2345962650836581,0,0.3886518224696645,1002.893772893773,830.0366300366301,1146.739926739927,990,921.5018315018315,-0.029480,0.078552,1.009155,5.757141,-1.592560,-4.695435,1,2,1,2,2,100.000000
2021-11-02 20:22:02.542,0,1.572199247229761,0,1.166037482801539,0,0.9845161444044341,0,0.4241004531395343,0,0.9337356268340535,0,0.5616925045404947,0,0.5828650393501766,0,0.6584079534933599,0,0.4009278883162983,0,0.3886518224696645,970.6593406593407,812.7106227106227,1210.805860805861,970.6593406593407,982.3443223443223,-0.044312,0.080811,1.008972,4.523468,-3.715973,-0.680389,1,2,1,2,2,100.000000
2021-11-02 20:22:03.542,0.7459948110155332,0.9533912352035345,0,0.9565287094735762,0.373558714824861,0.1835380737141038,0,0.5108827117476065,0.6386572000043595,0.4821546909420686,0,0.9460033191593598,0.6650213538452607,0.5843029847469793,0,0.8564681693138236,0.4280450822476154,0.522956735675575,0,0.9194685399483329,842.9304029304029,807.0695970695971,1213.223443223443,852.6007326007326,711.978021978022,-0.032471,0.076294,1.006714,5.831909,-4.867401,-0.463562,1,1,1,2,1,100.000000
2021-11-02 20:22:03.936,,,,,,,,,,,,,,,,,,,,,,,,,,,,,,,,,,,,,,/muse/elements/blink
2021-11-02 20:22:04.542,0.7321650106232007,1.534212201976688,0,0.9675624357350759,0.3697692391791631,0.9779771948996434,0,0.3021026210171071,0.6386572000043595,0.7153055350595623,0,0.3851478217941811,0.6653349669665934,0.6726118133564799,0,0.4774094896281702,0.3962580177606911,0.4668995032485585,0,0.5807291885688387,673.6996336996338,795.7875457875458,1091.538461538462,720.0366300366301,824.7985347985348,-0.036804,0.078796,1.004883,4.403839,-3.947754,-1.943970,1,1,1,2,1,100.000000
2021-11-02 20:22:05.545,0.7662952576896102,1.461131311596451,0,1.31868400779528,0.3446201998820752,1.013834144133476,0,1.119909620774385,0.5907788544341498,0.6990264766704396,0,1.035622045952454,0.6872961523045811,0.6042620044700172,0,0.6393156219075806,0.348187205206417,0.3324508810655471,0,0.3035927369957461,150.6959706959707,0,1559.340659340659,56.00732600732601,931.1721611721612,-0.070801,0.108765,0.996094,14.871368,4.089813,6.519775,1,1,1,2,1,100.000000
2021-11-02 20:22:05.776,,,,,,,,,,,,,,,,,,,,,,,,,,,,,,,,,,,,,,/muse/elements/blink
2021-11-02 20:22:06.542,0.7662952576896102,1.239777448479893,0,1.424105858668176,0.3446201998820752,0.8832688084457736,0,1.254711023386829,0.5907788544341498,0.5230286320698013,0,1.035622045952454,0.6872961523045811,0.6412727658432391,0,0.6274402882096719,0.348187205206417,0.08961999160233704,0,0.2466018327906835,770.8058608058608,767.1794871794872,1623.809523809524,842.9304029304029,838.0952380952381,-0.064697,0.116699,1.025391,2.631836,-2.003784,-7.656250,1,1,1,1,1,100.000000
2021-11-02 20:22:07.541,0.7662952576896102,1.271949592877968,-4.446798686173886,1.424105858668176,0.3446201998820752,0.907704180188426,-4.534173742301086,1.254711023386829,0.5907788544341498,0.5230286320698013,-4.105815249161872,1.035622045952454,0.6872961523045811,0.668509967447153,-3.727317106340049,0.6274402882096719,0.348187205206417,0.04715551693195014,-3.864480173189803,0.2466018327906835,582.6373626373627,744.2124542124542,1487.619047619048,686.5934065934066,696.2637362637363,-0.041809,0.111206,0.984619,3.730927,-7.693634,3.753357,1,1,1,2,1,100.000000
2021-11-02 20:22:07.696,,,,,,,,,,,,,,,,,,,,,,,,,,,,,,,,,,,,,,/muse/elements/blink
2021-11-02 20:22:07.977,,,,,,,,,,,,,,,,,,,,,,,,,,,,,,,,,,,,,,/muse/elements/blink
2021-11-02 20:22:08.385,,,,,,,,,,,,,,,,,,,,,,,,,,,,,,,,,,,,,,/muse/elements/blink
2021-11-02 20:22:08.547,0.7662952576896102,1.271949592877968,-4.446798686173886,1.424105858668176,0.3446201998820752,0.907704180188426,-4.534173742301086,1.254711023386829,0.5907788544341498,0.5230286320698013,-4.105815249161872,1.035622045952454,0.6872961523045811,0.668509967447153,-3.727317106340049,0.6274402882096719,0.348187205206417,0.04715551693195014,-3.864480173189803,0.2466018327906835,944.0659340659341,802.2344322344322,806.2637362637363,997.2527472527473,903.7728937728938,-0.030151,0.097412,1.036499,1.315918,-2.504730,10.407715,1,2,1,2,2,100.000000
2021-11-02 20:22:08.580,,,,,,,,,,,,,,,,,,,,,,,,,,,,,,,,,,,,,,/muse/elements/blink
2021-11-02 20:22:08.818,,,,,,,,,,,,,,,,,,,,,,,,,,,,,,,,,,,,,,/muse/elements/blink
2021-11-02 20:22:09.186,,,,,,,,,,,,,,,,,,,,,,,,,,,,,,,,,,,,,,/muse/elements/blink
2021-11-02 20:22:09.542,0.7662952576896102,1.271949592877968,-4.446798686173886,1.424105858668176,0.3446201998820752,0.907704180188426,-4.534173742301086,1.254711023386829,0.5907788544341498,0.5230286320698013,-4.105815249161872,1.035622045952454,0.6872961523045811,0.668509967447153,-3.727317106340049,0.6274402882096719,0.348187205206417,0.04715551693195014,-3.864480173189803,0.2466018327906835,1079.047619047619,873.956043956044,273.5897435897436,1039.157509157509,745.8241758241759,-0.058411,0.101318,1.005249,7.095490,-6.751556,0.874786,1,2,1,2,2,100.000000
2021-11-02 20:22:09.899,,,,,,,,,,,,,,,,,,,,,,,,,,,,,,,,,,,,,,/muse/elements/blink
2021-11-02 20:22:10.505,,,,,,,,,,,,,,,,,,,,,,,,,,,,,,,,,,,,,,/muse/elements/blink
2021-11-02 20:22:10.542,0.7662952576896102,2.122351156968525,-4.446798686173886,1.424105858668176,0.3446201998820752,1.324932162733051,-4.534173742301086,1.254711023386829,0.5907788544341498,0.5817424618337148,-4.105815249161872,1.035622045952454,0.6872961523045811,0.426627145320997,-3.727317106340049,0.6274402882096719,0.348187205206417,0.1260973407477232,-3.864480173189803,0.2466018327906835,761.941391941392,844.1391941391942,246.996336996337,711.978021978022,780.8791208791209,-0.067017,0.104980,1.000000,5.383301,-3.297272,-4.127197,1,2,1,2,2,100.000000
2021-11-02 20:22:11.437,,,,,,,,,,,,,,,,,,,,,,,,,,,,,,,,,,,,,,/muse/elements/blink
2021-11-02 20:22:11.541,0.7662952576896102,1.716174971615096,-4.446798686173886,1.424105858668176,0.3446201998820752,1.095127838831659,-4.534173742301086,1.254711023386829,0.5907788544341498,0.7963707329727615,-4.105815249161872,1.035622045952454,0.6872961523045811,0.4510851323400549,-3.727317106340049,0.6274402882096719,0.348187205206417,0.2687700159572544,-3.864480173189803,0.2466018327906835,1043.589743589744,792.5641025641025,1142.710622710623,1010.952380952381,993.6263736263736,-0.068970,0.117676,0.999390,3.192596,-4.448700,4.097290,1,2,1,2,2,100.000000
2021-11-02 20:22:12.550,0.7662952576896102,1.431000537747892,-4.446798686173886,1.424105858668176,0.3446201998820752,0.9159356392003212,-4.534173742301086,1.254711023386829,0.5907788544341498,0.8375592918589174,-4.105815249161872,1.035622045952454,0.6872961523045811,0.4568699169081184,-3.727317106340049,0.6274402882096719,0.348187205206417,0.09059144181681598,-3.864480173189803,0.2466018327906835,824.7985347985348,808.6813186813187,521.7948717948718,840.5128205128206,905.3846153846154,-0.047974,0.125061,1.004211,5.016937,-5.697327,-0.792542,1,2,1,2,2,100.000000
2021-11-02 20:22:13.541,0.7677870747191288,0.776683709096018,-4.446798686173886,0.5053467826369885,0.5299822359936293,0.3900846989479972,-4.534173742301086,0.5429912851409632,0.5019589527217412,0.3731962926211185,-4.105815249161872,0.597851226077377,0.4785621098990337,0.3557446928843334,-3.727317106340049,0.7324250135702186,0.3182274054466998,0.05095456787391053,-3.864480173189803,0.2631150903814833,743.0036630036631,797.8021978021978,462.5641025641026,760.7326007326008,862.2710622710623,-0.048035,0.127869,0.996399,4.874878,-4.830017,-1.712189,1,1,1,2,1,100.000000
2021-11-02 20:22:13.871,,,,,,,,,,,,,,,,,,,,,,,,,,,,,,,,,,,,,,/muse/elements/blink
2021-11-02 20:22:14.157,,,,,,,,,,,,,,,,,,,,,,,,,,,,,,,,,,,,,,/muse/elements/blink
2021-11-02 20:22:14.486,,,,,,,,,,,,,,,,,,,,,,,,,,,,,,,,,,,,,,/muse/elements/blink
2021-11-02 20:22:14.541,0.9255328835899246,0.8360254172429198,-4.446798686173886,0.7625754525830934,0.5011034081711448,0.6801584274203608,-4.534173742301086,0.42535046871973,0.6226925332351266,0.8314147485979201,-4.105815249161872,0.6961399536610727,0.4488497658847205,0.2673135549443225,-3.727317106340049,0.8072380987860018,0.3810527258972597,0.0244133257924861,-3.864480173189803,0.3396501926258981,971.0622710622711,814.7252747252747,1407.435897435897,946.8864468864469,1027.069597069597,-0.057312,0.119080,1.013245,-0.964508,-6.788940,-8.299255,1,1,1,2,1,100.000000
2021-11-02 20:22:14.899,,,,,,,,,,,,,,,,,,,,,,,,,,,,,,,,,,,,,,/muse/elements/blink
2021-11-02 20:22:15.541,1.04665134637737,1.244181068844204,-4.446798686173886,0.9282799432454285,0.4029110863692671,0.9389434580682573,-4.534173742301086,0.3139576313251994,0.4914203489737246,0.8379158515384588,-4.105815249161872,0.6303479266427798,0.3464598528879101,0.2206879524344762,-3.727317106340049,0.7871580657742374,0.195487093786678,-0.08675657878194441,-3.864480173189803,0.357524834304301,735.3479853479854,731.3186813186813,470.2197802197803,776.4468864468864,794.5787545787546,-0.012024,0.070618,1.002258,7.431946,-7.962799,3.843079,1,1,1,2,1,100.000000
2021-11-02 20:22:16.411,,,,,,,,,,,,,,,,,,,,,,,,,,,,,,,,,,,,,,/muse/elements/blink
2021-11-02 20:22:16.542,1.04665134637737,1.678025244316523,-4.446798686173886,0.9282799432454285,0.4029110863692671,1.080681998155425,-4.534173742301086,0.3139576313251994,0.4914203489737246,0.9453823876712006,-4.105815249161872,0.6303479266427798,0.3464598528879101,0.300647336515593,-3.727317106340049,0.7871580657742374,0.195487093786678,-0.02718505737892025,-3.864480173189803,0.357524834304301,1076.227106227106,818.7545787545788,1103.223443223443,1031.098901098901,994.4322344322345,-0.037231,0.098389,1.007568,5.009460,-4.344025,-0.157013,1,1,1,2,1,100.000000
2021-11-02 20:22:16.737,,,,,,,,,,,,,,,,,,,,,,,,,,,,,,,,,,,,,,/muse/elements/blink
2021-11-02 20:22:17.542,1.04665134637737,1.64139897588541,-4.446798686173886,0.9282799432454285,0.4029110863692671,1.028511788795222,-4.534173742301086,0.3139576313251994,0.4914203489737246,0.8160401471217151,-4.105815249161872,0.6303479266427798,0.3464598528879101,0.4199337215004995,-3.727317106340049,0.7871580657742374,0.195487093786678,0.2398946813431733,-3.864480173189803,0.357524834304301,1023.443223443223,825.2014652014652,1521.868131868132,979.5238095238095,875.5677655677656,-0.024536,0.082031,1.037048,-0.680389,2.654266,0.493469,1,2,1,2,2,100.000000
2021-11-02 20:22:17.615,,,,,,,,,,,,,,,,,,,,,,,,,,,,,,,,,,,,,,/muse/elements/blink
2021-11-02 20:22:17.812,,,,,,,,,,,,,,,,,,,,,,,,,,,,,,,,,,,,,,/muse/elements/blink
2021-11-02 20:22:18.542,1.04665134637737,0.8910714140103204,-4.446798686173886,0.9282799432454285,0.4029110863692671,0.4792312264473711,-4.534173742301086,0.3139576313251994,0.4914203489737246,0.6625361356218773,-4.105815249161872,0.6303479266427798,0.3464598528879101,0.441893682065622,-3.727317106340049,0.7871580657742374,0.195487093786678,0.2591625025677387,-3.864480173189803,0.357524834304301,906.996336996337,801.4285714285714,1400.18315018315,909.8168498168499,885.6410256410256,-0.073059,0.083984,1.004028,2.706604,-3.484192,-0.000000,1,2,1,2,2,100.000000
2021-11-02 20:22:18.841,,,,,,,,,,,,,,,,,,,,,,,,,,,,,,,,,,,,,,/muse/elements/blink
2021-11-02 20:22:19.168,,,,,,,,,,,,,,,,,,,,,,,,,,,,,,,,,,,,,,/muse/elements/blink
2021-11-02 20:22:19.543,,,,,,,,,,,,,,,,,,,,,,,,,,,,,,,,,,,,,,/muse/elements/blink
2021-11-02 20:22:19.557,1.04665134637737,0.7303646618487313,-4.446798686173886,0.9282799432454285,0.4029110863692671,0.3203820567101869,-4.534173742301086,0.3139576313251994,0.4914203489737246,0.5158127721325356,-4.105815249161872,0.6303479266427798,0.3464598528879101,0.3581426076858327,-3.727317106340049,0.7871580657742374,0.195487093786678,0.4643341520876742,-3.864480173189803,0.357524834304301,1228.131868131868,842.1245421245421,1214.029304029304,1016.996336996337,946.0805860805862,-0.214111,0.034241,0.961426,26.258545,-23.394928,-9.966583,1,2,1,2,2,100.000000
2021-11-02 20:22:20.155,,,,,,,,,,,,,,,,,,,,,,,,,,,,,,,,,,,,,,/muse/elements/blink
2021-11-02 20:22:20.541,1.04665134637737,0.7901957575814381,-4.446798686173886,0.9282799432454285,0.4029110863692671,0.3783924524979956,-4.534173742301086,0.3139576313251994,0.4914203489737246,0.3832713554204941,-4.105815249161872,0.6303479266427798,0.3464598528879101,0.2740359440297295,-3.727317106340049,0.7871580657742374,0.195487093786678,0.4466303074459021,-3.864480173189803,0.357524834304301,1023.846153846154,730.5128205128206,549.5970695970697,953.7362637362637,866.3003663003664,-0.103455,0.097168,0.994080,2.557068,-9.615173,1.211243,1,2,1,2,2,100.000000
2021-11-02 20:22:21.272,,,,,,,,,,,,,,,,,,,,,,,,,,,,,,,,,,,,,,/muse/elements/blink
2021-11-02 20:22:21.547,1.04665134637737,1.774388799751407,-4.446798686173886,1.220521751108778,0.4029110863692671,0.3034430119345703,-4.534173742301086,0.7694728127470535,0.4914203489737246,0.0880899570620475,-4.105815249161872,0.8264380695751438,0.3464598528879101,0.05738992218927882,-3.727317106340049,0.8772887571251381,0.195487093786678,-0.2173652469814742,-3.864480173189803,0.6834546801879853,984.7619047619048,768.3882783882784,983.5531135531136,961.3919413919414,877.1794871794872,-0.060974,0.132629,0.994873,8.359070,-6.228180,-5.517883,1,1,1,2,1,100.000000
2021-11-02 20:22:22.544,1.733047351178821,1.173792415472833,-4.446798686173886,0.9662966975086935,0.9489503921953888,0.09950634101763964,-4.534173742301086,0.5932116838612884,0.4533885906089231,0.1421698886964991,-4.105815249161872,0.8058637524354667,0.303880479399267,0.1891079272618223,-3.727317106340049,0.8404297094476225,0.1871782760251787,-0.3207254207065732,-3.864480173189803,0.5159753249399136,1116.520146520146,782.4908424908425,877.5824175824176,1050.842490842491,871.1355311355312,-0.066711,0.121155,1.007202,5.914154,-2.729034,-6.729126,1,1,1,2,1,100.000000
2021-11-02 20:22:23.542,1.29997258731501,1.164919444661891,-4.446798686173886,0.7750957048239899,0.3453144915656112,0.8552676324272436,-4.534173742301086,0.7348187732309917,0.1508859797944985,0.4563797402682612,-4.105815249161872,0.3093857893990711,0.3289311418681179,0.2557139918876478,-3.727317106340049,0.7595673089508661,0.1634832218661256,-0.1733182998667869,-3.864480173189803,0.4763036074215326,1057.692307692308,786.9230769230769,936.4102564102565,1022.234432234432,1041.978021978022,-0.072754,0.098572,1.007019,3.880463,-4.515991,-0.067291,1,1,1,2,1,100.000000
2021-11-02 20:22:24.545,1.296222832383588,0.9238415857848461,-4.446798686173886,1.392329496077286,0.4742692157820932,0.6493390294754798,-4.534173742301086,0.8961477028921024,0.7055599733408053,0.5779022703060737,-4.105815249161872,1.186594448909158,0.2508136326819134,0.3008394580720724,-3.727317106340049,0.6844459965415141,0.3411546345094283,-0.03576838654656648,-3.864480173189803,0.5826655611020736,1016.996336996337,790.5494505494506,996.4468864468864,1025.054945054945,966.2271062271062,-0.050476,0.104065,1.007019,5.069275,-4.717865,-1.794434,1,1,1,2,1,100.000000
2021-11-02 20:22:25.282,,,,,,,,,,,,,,,,,,,,,,,,,,,,,,,,,,,,,,/muse/elements/blink
2021-11-02 20:22:25.442,,,,,,,,,,,,,,,,,,,,,,,,,,,,,,,,,,,,,,/muse/elements/blink
2021-11-02 20:22:25.545,1.331897699995986,0.7426209807696265,-4.446798686173886,1.523337992098948,0.5194010265081545,0.4683728222008667,-4.534173742301086,0.9815572730714094,0.7297303327274111,0.4474356022089654,-4.105815249161872,1.18627874956616,0.3252447592723124,0.2285842427740735,-3.727317106340049,0.6915948478606792,0.299653076505157,-0.137190165405644,-3.864480173189803,0.5234089988853773,1076.630036630037,797.8021978021978,815.5311355311355,1054.065934065934,1026.263736263736,-0.046143,0.101685,1.003174,4.553375,-4.852448,-1.345825,1,1,1,2,1,100.000000
2021-11-02 20:22:26.541,1.040987902341947,0.8828627624984043,-4.446798686173886,1.092671331117544,0.7083548619550882,0.5132906689530867,-4.534173742301086,0.5952000998713366,0.5568033897242777,0.2079522318107191,-4.105815249161872,0.3559119754197745,0.5496877776819172,0.1759851912903202,-3.727317106340049,0.6305544382552403,0.1243996345567357,-0.2315156411070081,-3.864480173189803,0.2337321002356217,891.6849816849817,798.6080586080586,889.2673992673992,875.1648351648352,849.3772893772895,-0.044617,0.104980,1.000366,4.052429,-5.256195,-2.841187,1,1,1,2,1,100.000000
2021-11-02 20:22:27.541,1.130946608540713,0.5210204870118368,-4.446798686173886,0.9083161771278426,0.5636883086592716,0.1310780716448538,-4.534173742301086,0.3267300260119639,0.5726526680619521,0.1518740394483981,-4.105815249161872,0.442852431565457,0.3477443184873398,0.1648934076403581,-3.727317106340049,0.5640496793801285,0.02064242931927535,-0.08284830414093305,-3.864480173189803,0.2186067359369565,1059.304029304029,806.2637362637363,1006.923076923077,1019.81684981685,986.3736263736264,-0.034790,0.110596,1.005981,5.637512,-3.566437,-0.919647,1,1,1,2,1,100.000000
2021-11-02 20:22:28.542,0.7308726575455194,0.1123086918883564,-4.446798686173886,0.3370682711169332,0.09164277306475488,-0.2440440709393674,-4.534173742301086,0.02238683055788375,0.411737010542727,-0.1010068729304497,-4.105815249161872,0.4334650150095283,0.1062745381883216,0.06093076703385233,-3.727317106340049,0.6140452466599473,0.005641387678594941,0.03261667653257534,-3.864480173189803,0.3082389551138086,1120.549450549451,844.5421245421246,776.0439560439561,1077.032967032967,1021.428571428571,-0.063843,0.104248,1.002686,4.635620,-6.744080,-0.321503,1,1,1,2,1,100.000000
2021-11-02 20:22:28.591,,,,,,,,,,,,,,,,,,,,,,,,,,,,,,,,,,,,,,/muse/elements/blink
2021-11-02 20:22:28.921,,,,,,,,,,,,,,,,,,,,,,,,,,,,,,,,,,,,,,/muse/elements/blink
2021-11-02 20:22:29.209,,,,,,,,,,,,,,,,,,,,,,,,,,,,,,,,,,,,,,/muse/elements/blink
2021-11-02 20:22:29.547,0.8218624744101477,-0.09470987924246427,-4.446798686173886,0.2206119450576421,-0.06254568864812407,-0.141541038781548,-4.534173742301086,0.05079145430868463,0.1561681755785187,-0.199389172162014,-4.105815249161872,0.3892101264872975,0.0987097338310744,0.1230415009964142,-3.727317106340049,0.68526335601925,-0.03242036680684496,0.05784961309800232,-3.864480173189803,0.3009387742356853,1064.945054945055,784.9084249084249,840.9157509157509,1026.666666666667,911.4285714285714,-0.073242,0.105591,0.998535,4.613190,-5.764618,-4.254303,1,1,1,2,1,100.000000
2021-11-02 20:22:29.624,,,,,,,,,,,,,,,,,,,,,,,,,,,,,,,,,,,,,,/muse/elements/blink
2021-11-02 20:22:29.910,,,,,,,,,,,,,,,,,,,,,,,,,,,,,,,,,,,,,,/muse/elements/blink
2021-11-02 20:22:30.238,,,,,,,,,,,,,,,,,,,,,,,,,,,,,,,,,,,,,,/muse/elements/blink
2021-11-02 20:22:30.542,0.8218624744101477,1.798847346407475,-4.446798686173886,0.2206119450576421,-0.06254568864812407,1.317586514336175,-4.534173742301086,0.05079145430868463,0.1561681755785187,0.7685979696015238,-4.105815249161872,0.3892101264872975,0.0987097338310744,0.4975369358561401,-3.727317106340049,0.68526335601925,-0.03242036680684496,0.3098748549659177,-3.864480173189803,0.3009387742356853,1069.377289377289,790.952380952381,793.3699633699634,1030.29304029304,914.6520146520147,-0.070435,0.108032,0.995422,4.598236,-5.069275,-5.869293,1,1,1,2,1,100.000000
2021-11-02 20:22:30.610,,,,,,,,,,,,,,,,,,,,,,,,,,,,,,,,,,,,,,/muse/elements/blink
2021-11-02 20:22:30.937,,,,,,,,,,,,,,,,,,,,,,,,,,,,,,,,,,,,,,/muse/elements/blink
2021-11-02 20:22:31.223,,,,,,,,,,,,,,,,,,,,,,,,,,,,,,,,,,,,,,/muse/elements/blink
2021-11-02 20:22:31.542,0.8218624744101477,1.659797514558835,-4.446798686173886,0.2206119450576421,-0.06254568864812407,1.182809857255758,-4.534173742301086,0.05079145430868463,0.1561681755785187,0.3202483188243144,-4.105815249161872,0.3892101264872975,0.0987097338310744,0.6095659953728991,-3.727317106340049,0.68526335601925,-0.03242036680684496,0.1979046843897687,-3.864480173189803,0.3009387742356853,1051.245421245421,786.9230769230769,807.8754578754579,1027.069597069597,969.8534798534798,-0.102295,0.080078,0.998047,1.196289,-4.740295,-4.373932,1,2,1,2,2,100.000000
2021-11-02 20:22:32.255,,,,,,,,,,,,,,,,,,,,,,,,,,,,,,,,,,,,,,/muse/elements/blink
2021-11-02 20:22:32.541,0.8218624744101477,1.524674819911053,-4.446798686173886,0.2206119450576421,-0.06254568864812407,1.155265541268721,-4.534173742301086,0.05079145430868463,0.1561681755785187,0.8161555547103061,-4.105815249161872,0.3892101264872975,0.0987097338310744,0.461987162108784,-3.727317106340049,0.68526335601925,-0.03242036680684496,0.3437628608394001,-3.864480173189803,0.3009387742356853,1012.967032967033,807.0695970695971,661.6117216117216,996.0439560439561,749.4505494505495,-0.105408,0.094177,1.005798,3.633728,-1.345825,-3.753357,1,2,1,2,2,100.000000
2021-11-02 20:22:32.584,,,,,,,,,,,,,,,,,,,,,,,,,,,,,,,,,,,,,,/muse/elements/blink
2021-11-02 20:22:33.197,,,,,,,,,,,,,,,,,,,,,,,,,,,,,,,,,,,,,,/muse/elements/blink
2021-11-02 20:22:33.464,,,,,,,,,,,,,,,,,,,,,,,,,,,,,,,,,,,,,,/muse/elements/blink
2021-11-02 20:22:33.542,0.8218624744101477,1.460064321806817,-4.446798686173886,0.2206119450576421,-0.06254568864812407,1.250901811996922,-4.534173742301086,0.05079145430868463,0.1561681755785187,0.8161555547103061,-4.105815249161872,0.3892101264872975,0.0987097338310744,0.4003783592014938,-3.727317106340049,0.68526335601925,-0.03242036680684496,0.4492171262255391,-3.864480173189803,0.3009387742356853,1048.424908424908,819.5604395604396,1009.74358974359,1013.772893772894,821.1721611721612,-0.176880,0.089294,0.991882,6.519775,-6.542206,-0.373840,1,2,1,2,2,100.000000
2021-11-02 20:22:34.166,,,,,,,,,,,,,,,,,,,,,,,,,,,,,,,,,,,,,,/muse/elements/blink
2021-11-02 20:22:34.542,0.8218624744101477,1.629499818617456,-4.446798686173886,0.2206119450576421,-0.06254568864812407,1.403544660867042,-4.534173742301086,0.05079145430868463,0.1561681755785187,0.7713301588488206,-4.105815249161872,0.3892101264872975,0.0987097338310744,0.4583379206359587,-3.727317106340049,0.68526335601925,-0.03242036680684496,0.5560049388714691,-3.864480173189803,0.3009387742356853,731.3186813186813,786.1172161172161,688.2051282051282,731.7216117216118,619.7069597069598,-0.236389,0.067017,0.977600,4.628143,-6.063690,-4.426270,1,2,1,2,2,100.000000
2021-11-02 20:22:34.555,,,,,,,,,,,,,,,,,,,,,,,,,,,,,,,,,,,,,,/muse/elements/blink
2021-11-02 20:22:34.778,,,,,,,,,,,,,,,,,,,,,,,,,,,,,,,,,,,,,,/muse/elements/blink
2021-11-02 20:22:35.107,,,,,,,,,,,,,,,,,,,,,,,,,,,,,,,,,,,,,,/muse/elements/blink
2021-11-02 20:22:35.284,,,,,,,,,,,,,,,,,,,,,,,,,,,,,,,,,,,,,,/muse/elements/blink
2021-11-02 20:22:35.542,0.8218624744101477,1.629499818617456,-4.446798686173886,0.2206119450576421,-0.06254568864812407,1.403544660867042,-4.534173742301086,0.05079145430868463,0.1561681755785187,0.7713301588488206,-4.105815249161872,0.3892101264872975,0.0987097338310744,0.4583379206359587,-3.727317106340049,0.68526335601925,-0.03242036680684496,0.5560049388714691,-3.864480173189803,0.3009387742356853,962.1978021978023,854.2124542124542,1158.424908424908,938.4249084249085,788.9377289377289,-0.198669,0.097412,0.983032,2.736511,1.054230,-1.510315,1,2,1,2,2,100.000000
2021-11-02 20:22:35.808,,,,,,,,,,,,,,,,,,,,,,,,,,,,,,,,,,,,,,/muse/elements/blink
2021-11-02 20:22:36.334,,,,,,,,,,,,,,,,,,,,,,,,,,,,,,,,,,,,,,/muse/elements/blink
2021-11-02 20:22:36.542,0.8218624744101477,1.725818563881881,-4.446798686173886,0.2206119450576421,-0.06254568864812407,0.9857958859220105,-4.534173742301086,0.05079145430868463,0.1561681755785187,0.3581881313363857,-4.105815249161872,0.3892101264872975,0.0987097338310744,0.630131204488377,-3.727317106340049,0.68526335601925,-0.03242036680684496,0.5263201421457668,-3.864480173189803,0.3009387742356853,880,724.8717948717949,888.8644688644689,870.7326007326008,834.8717948717949,-0.164062,0.093445,1.005493,3.499146,-1.211243,7.843170,1,2,1,2,2,100.000000
2021-11-02 20:22:37.322,,,,,,,,,,,,,,,,,,,,,,,,,,,,,,,,,,,,,,/muse/elements/blink
2021-11-02 20:22:37.543,,,,,,,,,,,,,,,,,,,,,,,,,,,,,,,,,,,,,,/muse/elements/blink
2021-11-02 20:22:37.555,0.8218624744101477,2.300601973968152,-4.446798686173886,0.2206119450576421,-0.06254568864812407,0.978130390016329,-4.534173742301086,0.05079145430868463,0.1561681755785187,0.6317323333349047,-4.105815249161872,0.3892101264872975,0.0987097338310744,0.966472055916432,-3.727317106340049,0.68526335601925,-0.03242036680684496,0.8918184398284487,-3.864480173189803,0.3009387742356853,920.2930402930403,727.6923076923077,413.8095238095238,944.4688644688645,832.8571428571429,-0.241638,0.094910,0.987183,3.783264,-11.417084,-3.020630,1,2,1,2,2,100.000000
2021-11-02 20:22:38.071,,,,,,,,,,,,,,,,,,,,,,,,,,,,,,,,,,,,,,/muse/elements/blink
2021-11-02 20:22:38.249,,,,,,,,,,,,,,,,,,,,,,,,,,,,,,,,,,,,,,/muse/elements/blink
2021-11-02 20:22:38.538,,,,,,,,,,,,,,,,,,,,,,,,,,,,,,,,,,,,,,/muse/elements/blink
2021-11-02 20:22:38.552,0.8218624744101477,2.137366084394151,-4.446798686173886,0.2206119450576421,-0.06254568864812407,0.9533660135577875,-4.534173742301086,0.05079145430868463,0.1561681755785187,0.6502948234518465,-4.105815249161872,0.3892101264872975,0.0987097338310744,0.7698966258969087,-3.727317106340049,0.68526335601925,-0.03242036680684496,0.5324134479467626,-3.864480173189803,0.3009387742356853,1057.289377289377,742.1978021978023,1004.908424908425,1079.85347985348,810.6959706959707,-0.170593,0.061218,0.982605,7.125397,-3.835602,-3.259888,1,2,1,2,2,100.000000
2021-11-02 20:22:38.870,,,,,,,,,,,,,,,,,,,,,,,,,,,,,,,,,,,,,,/muse/elements/blink
2021-11-02 20:22:39.378,,,,,,,,,,,,,,,,,,,,,,,,,,,,,,,,,,,,,,/muse/elements/blink
2021-11-02 20:22:39.542,0.8218624744101477,1.907180323396296,-4.446798686173886,0.2206119450576421,-0.06254568864812407,0.5478824515293618,-4.534173742301086,0.05079145430868463,0.1561681755785187,0.5109990849008995,-4.105815249161872,0.3892101264872975,0.0987097338310744,0.5891629023441941,-3.727317106340049,0.68526335601925,-0.03242036680684496,0.3103568038512586,-3.864480173189803,0.3009387742356853,957.3626373626374,785.3113553113553,692.2344322344322,924.3223443223443,888.8644688644689,-0.120972,0.053406,0.994446,6.512299,-8.374023,1.502838,1,2,1,2,2,100.000000
2021-11-02 20:22:39.555,,,,,,,,,,,,,,,,,,,,,,,,,,,,,,,,,,,,,,/muse/elements/blink
2021-11-02 20:22:39.754,,,,,,,,,,,,,,,,,,,,,,,,,,,,,,,,,,,,,,/muse/elements/blink
2021-11-02 20:22:39.995,,,,,,,,,,,,,,,,,,,,,,,,,,,,,,,,,,,,,,/muse/elements/blink
2021-11-02 20:22:40.264,,,,,,,,,,,,,,,,,,,,,,,,,,,,,,,,,,,,,,/muse/elements/blink
2021-11-02 20:22:40.487,,,,,,,,,,,,,,,,,,,,,,,,,,,,,,,,,,,,,,/muse/elements/blink
2021-11-02 20:22:40.542,0.4997365784726642,0.7477208059530388,-4.446798686173886,1.235708431122856,0.2615423192289447,0.06011300978348796,-4.534173742301086,0.7311169251405973,0.6622564998835794,0.5189820815932698,-4.105815249161872,0.9381042620132169,0.4459011264373862,0.4073081495911466,-3.727317106340049,0.8619193653397113,0.4723994928015951,0.2176590811003987,-3.864480173189803,0.7046896719741058,787.7289377289378,788.9377289377289,134.5787545787546,805.0549450549451,823.1868131868132,-0.077576,0.047424,1.000671,4.172058,-8.082428,1.368256,1,1,1,2,1,100.000000
2021-11-02 20:22:40.776,,,,,,,,,,,,,,,,,,,,,,,,,,,,,,,,,,,,,,/muse/elements/blink
2021-11-02 20:22:41.542,1.06850423975915,0.4759228466950669,-4.446798686173886,1.225493349407849,0.840090602892503,0.2943963783811844,-4.534173742301086,0.9077423854191853,0.9754721898949416,0.5246946038024639,-4.105815249161872,0.9381042620132169,0.4356475852519838,0.2881999027229662,-3.727317106340049,0.8822559036760385,0.319529869348177,0.05470134737637379,-3.864480173189803,0.7250275966620514,850.1831501831502,771.6117216117216,461.7582417582418,839.3040293040293,674.9084249084249,-0.028687,0.057861,1.013245,6.190796,-7.446899,-0.740204,1,1,1,2,1,100.000000
2021-11-02 20:22:41.704,,,,,,,,,,,,,,,,,,,,,,,,,,,,,,,,,,,,,,/muse/elements/blink
2021-11-02 20:22:41.903,,,,,,,,,,,,,,,,,,,,,,,,,,,,,,,,,,,,,,/muse/elements/blink
2021-11-02 20:22:42.541,1.484981656921914,1.118125028209955,-4.446798686173886,1.225493349407849,1.211462268268463,0.8882328787558569,-4.534173742301086,0.9077423854191853,0.9368359556475548,0.709389009509238,-4.105815249161872,0.9381042620132169,0.4846634678718268,0.4780440876663372,-3.727317106340049,0.8822559036760385,0.120322864021524,0.09976194311160233,-3.864480173189803,0.7250275966620514,911.4285714285714,816.7399267399268,423.0769230769231,877.1794871794872,830.8424908424909,-0.011963,0.063660,1.007568,6.145935,-12.247009,-0.291595,1,1,1,2,1,100.000000
2021-11-02 20:22:42.692,,,,,,,,,,,,,,,,,,,,,,,,,,,,,,,,,,,,,,/muse/elements/blink
2021-11-02 20:22:43.542,1.566527477947606,1.044207808608988,-4.446798686173886,1.225493349407849,1.298235964201898,0.7584384043419401,-4.534173742301086,0.9077423854191853,0.9368359556475548,0.6683110583357496,-4.105815249161872,0.9381042620132169,0.5073242333619472,0.5425311828993455,-3.727317106340049,0.8822559036760385,0.08391186370007349,0.1012997567398414,-3.864480173189803,0.7250275966620514,990.4029304029305,809.8901098901099,618.901098901099,1002.087912087912,945.6776556776557,-0.008240,0.072510,1.019104,8.000183,-7.574005,0.388794,1,1,1,2,1,100.000000
2021-11-02 20:22:43.921,,,,,,,,,,,,,,,,,,,,,,,,,,,,,,,,,,,,,,/muse/elements/blink
2021-11-02 20:22:44.158,,,,,,,,,,,,,,,,,,,,,,,,,,,,,,,,,,,,,,/muse/elements/blink
2021-11-02 20:22:44.542,1.566527477947606,0.8617593412924863,-4.446798686173886,1.225493349407849,1.298235964201898,0.6451429955548572,-4.534173742301086,0.9077423854191853,0.9368359556475548,0.2300887280734416,-4.105815249161872,0.9381042620132169,0.5073242333619472,0.310376991831268,-3.727317106340049,0.8822559036760385,0.08391186370007349,0.1383393404129791,-3.864480173189803,0.7250275966620514,612.0512820512821,803.8461538461539,402.9304029304029,626.959706959707,649.1208791208792,0.008118,0.074402,1.013306,2.915955,-8.142242,5.286102,1,2,1,2,2,100.000000
2021-11-02 20:22:45.363,,,,,,,,,,,,,,,,,,,,,,,,,,,,,,,,,,,,,,/muse/elements/blink
2021-11-02 20:22:45.541,1.566527477947606,0.8600137615616373,-4.446798686173886,1.225493349407849,1.298235964201898,0.6230050777712113,-4.534173742301086,0.9077423854191853,0.9368359556475548,0.3223158653915373,-4.105815249161872,0.9381042620132169,0.5073242333619472,0.3242848925801411,-3.727317106340049,0.8822559036760385,0.08391186370007349,0.1103234532038368,-3.864480173189803,0.7250275966620514,915.4578754578755,801.8315018315019,512.5274725274726,921.0989010989011,818.7545787545788,0.033752,0.053589,1.010010,3.364563,-4.276733,-3.207550,1,2,1,2,2,100.000000
2021-11-02 20:22:45.564,,,,,,,,,,,,,,,,,,,,,,,,,,,,,,,,,,,,,,/muse/elements/blink
2021-11-02 20:22:46.542,1.566527477947606,0.8752616796201311,-4.446798686173886,1.225493349407849,1.298235964201898,0.3886339515626986,-4.534173742301086,0.9077423854191853,0.9368359556475548,0.371165832947189,-4.105815249161872,0.9381042620132169,0.5073242333619472,0.388900969109605,-3.727317106340049,0.8822559036760385,0.08391186370007349,0.07159447997782786,-3.864480173189803,0.7250275966620514,970.6593406593407,796.1904761904763,498.021978021978,978.7179487179487,849.3772893772895,0.004578,0.063538,1.007141,1.764526,-6.280518,-4.426270,1,2,1,2,2,100.000000
2021-11-02 20:22:47.058,,,,,,,,,,,,,,,,,,,,,,,,,,,,,,,,,,,,,,/muse/elements/blink
2021-11-02 20:22:47.389,,,,,,,,,,,,,,,,,,,,,,,,,,,,,,,,,,,,,,/muse/elements/blink
2021-11-02 20:22:47.542,0.5961269263146785,0.7625310014730307,-4.446798686173886,0.6224378253606628,0.2278345976201173,0.1810428262929904,-4.534173742301086,0.294849034242788,0.1377531901261123,0.1514550176443776,-4.105815249161872,0.2840532492415848,0.4169053716812474,0.3602328208290942,-3.727317106340049,0.5501749895482189,0.0517281134293236,0.1923277438752712,-3.864480173189803,0.1814348303476829,828.4249084249085,791.7582417582418,452.0879120879121,839.7069597069598,594.7252747252747,-0.023071,0.063232,1.016724,7.140350,-4.396362,0.269165,1,1,1,2,1,100.000000
2021-11-02 20:22:47.678,,,,,,,,,,,,,,,,,,,,,,,,,,,,,,,,,,,,,,/muse/elements/blink
2021-11-02 20:22:48.509,,,,,,,,,,,,,,,,,,,,,,,,,,,,,,,,,,,,,,/muse/elements/blink
2021-11-02 20:22:48.542,0.6542127322321577,1.055920171528098,-4.446798686173886,0.7574438801101421,0.1642489696723834,0.6018902974787904,-4.534173742301086,0.4496869265433591,0.1002899920627937,0.1879036232680918,-4.105815249161872,0.2828627165118403,0.4891721635908892,0.3451028520596684,-3.727317106340049,0.5125695309696678,0.0845033106893964,0.2437223863276778,-3.864480173189803,0.1497054391907228,908.2051282051282,801.8315018315019,707.948717948718,920.6959706959707,837.2893772893773,0.000916,0.041687,1.013306,3.656158,9.921722,-7.013245,1,1,1,2,1,100.000000
2021-11-02 20:22:49.409,,,,,,,,,,,,,,,,,,,,,,,,,,,,,,,,,,,,,,/muse/elements/blink
2021-11-02 20:22:49.542,0.6542127322321577,0.86414056699984,-4.446798686173886,0.7574438801101421,0.1642489696723834,0.6338464470514984,-4.534173742301086,0.4496869265433591,0.1002899920627937,0.3177297804133796,-4.105815249161872,0.2828627165118403,0.4891721635908892,0.2738442509108034,-3.727317106340049,0.5125695309696678,0.0845033106893964,0.2929583489651496,-3.864480173189803,0.1497054391907228,751.0622710622711,793.7728937728938,170.4395604395604,758.7179487179487,725.2747252747253,-0.048645,0.068787,1.031738,-1.614990,-4.665527,-3.932800,1,1,1,2,1,100.000000
2021-11-02 20:22:49.739,,,,,,,,,,,,,,,,,,,,,,,,,,,,,,,,,,,,,,/muse/elements/blink
2021-11-02 20:22:50.437,,,,,,,,,,,,,,,,,,,,,,,,,,,,,,,,,,,,,,/muse/elements/blink
2021-11-02 20:22:50.542,0.6542127322321577,0.9894642427525359,-4.446798686173886,0.7574438801101421,0.1642489696723834,0.7900621263687932,-4.534173742301086,0.4496869265433591,0.1002899920627937,0.5092771966202431,-4.105815249161872,0.2828627165118403,0.4891721635908892,0.2982709160353013,-3.727317106340049,0.5125695309696678,0.0845033106893964,0.3452201229394847,-3.864480173189803,0.1497054391907228,861.4652014652015,826.007326007326,595.5311355311355,869.1208791208792,585.8608058608058,-0.146973,0.030457,1.024841,-3.686066,15.589142,-6.744080,1,2,1,2,2,100.000000
2021-11-02 20:22:50.702,,,,,,,,,,,,,,,,,,,,,,,,,,,,,,,,,,,,,,/muse/elements/blink
2021-11-02 20:22:50.944,,,,,,,,,,,,,,,,,,,,,,,,,,,,,,,,,,,,,,/muse/elements/blink
2021-11-02 20:22:51.471,,,,,,,,,,,,,,,,,,,,,,,,,,,,,,,,,,,,,,/muse/elements/blink
2021-11-02 20:22:51.541,0.6542127322321577,1.242471805673704,-4.446798686173886,0.7574438801101421,0.1642489696723834,1.161599132891563,-4.534173742301086,0.4496869265433591,0.1002899920627937,0.4673564729495073,-4.105815249161872,0.2828627165118403,0.4891721635908892,0.4472600605347773,-3.727317106340049,0.5125695309696678,0.0845033106893964,0.4342461092317224,-3.864480173189803,0.1497054391907228,905.3846153846154,834.4688644688645,887.2527472527473,925.1282051282052,840.1098901098901,-0.365784,0.013428,0.946289,6.781464,-1.861725,-4.276733,1,2,1,4,2,100.000000
2021-11-02 20:22:51.648,,,,,,,,,,,,,,,,,,,,,,,,,,,,,,,,,,,,,,/muse/elements/blink
2021-11-02 20:22:52.262,,,,,,,,,,,,,,,,,,,,,,,,,,,,,,,,,,,,,,/muse/elements/blink
2021-11-02 20:22:52.542,0.6542127322321577,1.204559457938265,-4.446798686173886,0.7574438801101421,0.1642489696723834,0.4525361378805611,-4.534173742301086,0.4496869265433591,0.1002899920627937,0.1072974305673924,-4.105815249161872,0.2828627165118403,0.4891721635908892,0.49148740423418,-3.727317106340049,0.5125695309696678,0.0845033106893964,0.8034938409777309,-3.864480173189803,0.1497054391907228,1127.802197802198,747.4358974358975,371.5018315018315,1120.952380952381,876.7765567765568,-0.327209,0.114319,0.896729,-8.045044,-29.496002,-6.385193,1,2,1,4,2,100.000000
2021-11-02 20:22:52.878,,,,,,,,,,,,,,,,,,,,,,,,,,,,,,,,,,,,,,/muse/elements/blink
2021-11-02 20:22:53.146,,,,,,,,,,,,,,,,,,,,,,,,,,,,,,,,,,,,,,/muse/elements/blink
2021-11-02 20:22:53.552,0.6542127322321577,1.605652738353072,-4.446798686173886,0.7574438801101421,0.1642489696723834,0.7988188781821367,-4.534173742301086,0.4496869265433591,0.1002899920627937,0.5156712911686746,-4.105815249161872,0.2828627165118403,0.4891721635908892,0.3610027501510983,-3.727317106340049,0.5125695309696678,0.0845033106893964,0.5016944074028772,-3.864480173189803,0.1497054391907228,811.5018315018315,783.6996336996338,570.1465201465202,814.3223443223443,626.1538461538462,-0.138245,0.002563,1.000061,3.349609,-3.940277,-5.293579,1,2,1,2,2,100.000000
2021-11-02 20:22:53.585,,,,,,,,,,,,,,,,,,,,,,,,,,,,,,,,,,,,,,/muse/elements/blink
2021-11-02 20:22:54.047,,,,,,,,,,,,,,,,,,,,,,,,,,,,,,,,,,,,,,/muse/elements/blink
2021-11-02 20:22:54.186,,,,,,,,,,,,,,,,,,,,,,,,,,,,,,,,,,,,,,/muse/elements/blink
2021-11-02 20:22:54.541,0.5720927966126982,0.9450081636177425,-4.446798686173886,1.123122769577157,0.1277425457374408,0.2492790104227863,-4.534173742301086,0.4312351074221649,0.4022006579700013,0.6845668637437139,-4.105815249161872,0.4340291570420916,0.3147498668451142,0.1614876043914704,-3.727317106340049,0.7366847070676696,0.01305647378865386,-0.02422753903145861,-3.864480173189803,0.202602242035804,894.1025641025641,792.5641025641025,458.5347985347985,886.8498168498169,721.2454212454213,-0.125183,0.035706,1.012329,4.194489,-11.118011,7.409515,1,1,1,2,1,100.000000
2021-11-02 20:22:54.894,,,,,,,,,,,,,,,,,,,,,,,,,,,,,,,,,,,,,,/muse/elements/blink
2021-11-02 20:22:55.206,,,,,,,,,,,,,,,,,,,,,,,,,,,,,,,,,,,,,,/muse/elements/blink
2021-11-02 20:22:55.546,1.713750944689399,0.7179054621454904,-4.446798686173886,1.535282214122077,1.041189014183933,0.3962149308207346,-4.534173742301086,0.8844540827370729,0.6361647181488416,0.7461441984544656,-4.105815249161872,0.6618090166054071,0.5358732297413649,0.3595134302378116,-3.727317106340049,0.8198405097636522,0.3605395791003279,0.07116588936095126,-3.864480173189803,0.4976622039148323,622.9304029304029,793.3699633699634,429.5238095238095,607.2161172161173,774.0293040293041,-0.170288,0.059753,1.066956,6.078644,26.482849,2.901001,1,1,1,2,1,100.000000
2021-11-02 20:22:55.604,,,,,,,,,,,,,,,,,,,,,,,,,,,,,,,,,,,,,,/muse/elements/blink
2021-11-02 20:22:55.825,,,,,,,,,,,,,,,,,,,,,,,,,,,,,,,,,,,,,,/muse/elements/blink
2021-11-02 20:22:56.447,,,,,,,,,,,,,,,,,,,,,,,,,,,,,,,,,,,,,,/muse/elements/blink
2021-11-02 20:22:56.547,1.713750944689399,1.459556819482934,-4.446798686173886,1.535282214122077,1.041189014183933,0.6046911329418247,-4.534173742301086,0.8844540827370729,0.6361647181488416,0.5240416794993988,-4.105815249161872,0.6618090166054071,0.5358732297413649,0.4684592279146532,-3.727317106340049,0.8198405097636522,0.3605395791003279,0.5792256892828085,-3.864480173189803,0.4976622039148323,732.1245421245421,738.5714285714286,580.6227106227107,811.0989010989011,600.3663003663004,-0.332214,-0.039734,0.963684,1.166382,-10.519867,-3.185120,1,1,1,2,1,100.000000
2021-11-02 20:22:57.044,,,,,,,,,,,,,,,,,,,,,,,,,,,,,,,,,,,,,,/muse/elements/blink
2021-11-02 20:22:57.331,,,,,,,,,,,,,,,,,,,,,,,,,,,,,,,,,,,,,,/muse/elements/blink
2021-11-02 20:22:57.542,1.713750944689399,1.818403296607195,-4.446798686173886,1.535282214122077,1.041189014183933,0.9386889904441235,-4.534173742301086,0.8844540827370729,0.6361647181488416,0.4222052152965863,-4.105815249161872,0.6618090166054071,0.5358732297413649,0.4840071689169873,-3.727317106340049,0.8198405097636522,0.3605395791003279,0.7837552727749739,-3.864480173189803,0.4976622039148323,910.6227106227107,805.4578754578755,821.978021978022,925.5311355311355,810.6959706959707,-0.326599,0.003357,0.971741,10.721741,-2.803802,2.878571,1,1,1,2,1,100.000000
2021-11-02 20:22:57.919,,,,,,,,,,,,,,,,,,,,,,,,,,,,,,,,,,,,,,/muse/elements/blink
2021-11-02 20:22:58.271,,,,,,,,,,,,,,,,,,,,,,,,,,,,,,,,,,,,,,/muse/elements/blink
2021-11-02 20:22:58.447,,,,,,,,,,,,,,,,,,,,,,,,,,,,,,,,,,,,,,/muse/elements/blink
2021-11-02 20:22:58.548,1.713750944689399,1.212145035980418,-4.446798686173886,1.535282214122077,1.041189014183933,0.9766328039373987,-4.534173742301086,0.8844540827370729,0.6361647181488416,0.7598857172446335,-4.105815249161872,0.6618090166054071,0.5358732297413649,0.8210570994380915,-3.727317106340049,0.8198405097636522,0.3605395791003279,0.5771139817896012,-3.864480173189803,0.4976622039148323,731.3186813186813,837.2893772893773,1454.175824175824,768.3882783882784,778.8644688644689,-0.492676,-0.003784,0.887329,10.938568,17.936859,1.435547,1,2,1,2,2,100.000000
2021-11-02 20:22:59.150,,,,,,,,,,,,,,,,,,,,,,,,,,,,,,,,,,,,,,/muse/elements/blink
2021-11-02 20:22:59.542,1.890111046294457,0.8297173994656164,-4.446798686173886,0.9363557955557682,0.6348744475778827,0.1942068003883438,-4.534173742301086,0.2442886046382932,0.4974669404069397,0.6044174731989794,-4.105815249161872,0.5623880739751013,0.5398801255762058,0.7829201237027985,-3.727317106340049,0.6630148731118957,0.4518222192316986,0.5806573027013976,-3.864480173189803,0.4969347206772958,809.0842490842491,751.8681318681319,1643.150183150183,719.6336996336996,662.014652014652,-0.458069,0.002686,0.876648,4.157104,4.022522,-3.469238,1,1,1,4,1,100.000000
2021-11-02 20:22:59.854,,,,,,,,,,,,,,,,,,,,,,,,,,,,,,,,,,,,,,/muse/elements/blink
2021-11-02 20:23:00.379,,,,,,,,,,,,,,,,,,,,,,,,,,,,,,,,,,,,,,/muse/elements/blink
2021-11-02 20:23:00.542,1.873951437029013,1.057073103248168,-4.446798686173886,1.14805276727658,0.5814793276620668,-0.150454923347636,-4.534173742301086,0.2703034675051776,0.4972400474771322,-0.1331641379855876,-4.105815249161872,0.6021058857561671,0.4869735480492186,0.6728137167060754,-3.727317106340049,0.6956812723311169,0.5164374053713136,0.5412597301685202,-3.864480173189803,0.5534404960602524,874.3589743589744,856.6300366300367,1179.377289377289,899.7435897435897,819.96336996337,-0.453003,0.012146,0.900330,-0.134583,-2.130890,-4.822540,1,1,1,4,1,100.000000
2021-11-02 20:23:00.797,,,,,,,,,,,,,,,,,,,,,,,,,,,,,,,,,,,,,,/muse/elements/blink
2021-11-02 20:23:00.996,,,,,,,,,,,,,,,,,,,,,,,,,,,,,,,,,,,,,,/muse/elements/blink
2021-11-02 20:23:01.411,,,,,,,,,,,,,,,,,,,,,,,,,,,,,,,,,,,,,,/muse/elements/blink
2021-11-02 20:23:01.542,1.729528262252479,1.143898666419778,-4.446798686173886,1.254785252205191,0.335471490923373,-0.09041654792849713,-4.534173742301086,0.2354013812919157,0.4308527244667184,-0.1450730161181086,-4.105815249161872,0.539844694187217,0.4893212572123704,0.6250120006362645,-3.727317106340049,0.6818123280945869,0.5458954180134027,0.5474857674998591,-3.864480173189803,0.5847493639542495,976.7032967032967,819.5604395604396,1590.3663003663,1004.505494505495,982.7472527472528,-0.468506,0.004822,0.890564,6.377716,-3.147736,-2.228088,1,1,1,4,1,100.000000
2021-11-02 20:23:01.701,,,,,,,,,,,,,,,,,,,,,,,,,,,,,,,,,,,,,,/muse/elements/blink
2021-11-02 20:23:02.448,,,,,,,,,,,,,,,,,,,,,,,,,,,,,,,,,,,,,,/muse/elements/blink
2021-11-02 20:23:02.552,1.729528262252479,0.7804249857644925,-4.446798686173886,1.254785252205191,0.335471490923373,0.2444201370953588,-4.534173742301086,0.2354013812919157,0.4308527244667184,0.4512547554042747,-4.105815249161872,0.539844694187217,0.4893212572123704,0.4208129735317657,-3.727317106340049,0.6818123280945869,0.5458954180134027,0.5715035068393023,-3.864480173189803,0.5847493639542495,901.3553113553114,820.7692307692308,1206.776556776557,888.4615384615385,709.5604395604396,-0.466248,0.032715,0.894958,4.979553,-4.478607,-2.564545,1,2,1,4,2,100.000000
2021-11-02 20:23:02.716,,,,,,,,,,,,,,,,,,,,,,,,,,,,,,,,,,,,,,/muse/elements/blink
2021-11-02 20:23:02.914,,,,,,,,,,,,,,,,,,,,,,,,,,,,,,,,,,,,,,/muse/elements/blink
2021-11-02 20:23:03.333,,,,,,,,,,,,,,,,,,,,,,,,,,,,,,,,,,,,,,/muse/elements/blink
2021-11-02 20:23:03.542,1.729528262252479,0.6538253510599795,-4.446798686173886,1.254785252205191,0.335471490923373,0.3765294917207477,-4.534173742301086,0.2354013812919157,0.4308527244667184,0.5772337212649188,-4.105815249161872,0.539844694187217,0.4893212572123704,0.6775846710366434,-3.727317106340049,0.6818123280945869,0.5458954180134027,0.567978096596605,-3.864480173189803,0.5847493639542495,945.6776556776557,805.0549450549451,1118.534798534798,897.3260073260074,926.7399267399268,-0.468384,0.028687,0.897766,4.725342,-6.093597,-2.452393,1,2,1,2,2,100.000000
2021-11-02 20:23:03.663,,,,,,,,,,,,,,,,,,,,,,,,,,,,,,,,,,,,,,/muse/elements/blink
2021-11-02 20:23:03.842,,,,,,,,,,,,,,,,,,,,,,,,,,,,,,,,,,,,,,/muse/elements/blink
2021-11-02 20:23:04.042,,,,,,,,,,,,,,,,,,,,,,,,,,,,,,,,,,,,,,/muse/elements/blink
2021-11-02 20:23:04.549,1.729528262252479,0.4249048280525451,-4.446798686173886,1.254785252205191,0.335471490923373,0.3736740310376395,-4.534173742301086,0.2354013812919157,0.4308527244667184,0.5747460892841627,-4.105815249161872,0.539844694187217,0.4893212572123704,0.6131738368380601,-3.727317106340049,0.6818123280945869,0.5458954180134027,0.4792869232633262,-3.864480173189803,0.5847493639542495,758.3150183150184,818.3516483516484,651.941391941392,749.8534798534798,762.7472527472528,-0.465393,0.053772,0.889160,3.394470,-7.155304,-2.504730,1,2,1,2,2,100.000000
2021-11-02 20:23:04.724,,,,,,,,,,,,,,,,,,,,,,,,,,,,,,,,,,,,,,/muse/elements/blink
2021-11-02 20:23:05.075,,,,,,,,,,,,,,,,,,,,,,,,,,,,,,,,,,,,,,/muse/elements/blink
2021-11-02 20:23:05.493,,,,,,,,,,,,,,,,,,,,,,,,,,,,,,,,,,,,,,/muse/elements/blink
2021-11-02 20:23:05.545,1.729528262252479,0.4336832990452867,-4.446798686173886,1.254785252205191,0.335471490923373,0.4966239294566661,-4.534173742301086,0.2354013812919157,0.4308527244667184,0.4665393057126005,-4.105815249161872,0.539844694187217,0.4893212572123704,0.5003042291327913,-3.727317106340049,0.6818123280945869,0.5458954180134027,0.4320632002364139,-3.864480173189803,0.5847493639542495,932.7838827838829,807.0695970695971,1168.901098901099,931.1721611721612,706.3369963369963,-0.432434,0.020569,0.913269,4.216919,-5.861816,-1.256104,1,2,1,2,2,100.000000
2021-11-02 20:23:05.667,,,,,,,,,,,,,,,,,,,,,,,,,,,,,,,,,,,,,,/muse/elements/blink
2021-11-02 20:23:05.955,,,,,,,,,,,,,,,,,,,,,,,,,,,,,,,,,,,,,,/muse/elements/blink
2021-11-02 20:23:06.286,,,,,,,,,,,,,,,,,,,,,,,,,,,,,,,,,,,,,,/muse/elements/blink
2021-11-02 20:23:06.465,,,,,,,,,,,,,,,,,,,,,,,,,,,,,,,,,,,,,,/muse/elements/blink
2021-11-02 20:23:06.542,1.729528262252479,0.550705328109181,-4.446798686173886,1.254785252205191,0.335471490923373,0.573682135786666,-4.534173742301086,0.2354013812919157,0.4308527244667184,0.6749056842490655,-4.105815249161872,0.539844694187217,0.4893212572123704,0.6450004693418876,-3.727317106340049,0.6818123280945869,0.5458954180134027,0.4246276371112037,-3.864480173189803,0.5847493639542495,980.7326007326008,809.4871794871796,1285.750915750916,1000.07326007326,1025.457875457875,-0.415833,0.007446,0.918701,4.239349,-4.486084,0.134583,1,2,1,2,2,100.000000
2021-11-02 20:23:06.884,,,,,,,,,,,,,,,,,,,,,,,,,,,,,,,,,,,,,,/muse/elements/blink
2021-11-02 20:23:07.324,,,,,,,,,,,,,,,,,,,,,,,,,,,,,,,,,,,,,,/muse/elements/blink
2021-11-02 20:23:07.504,,,,,,,,,,,,,,,,,,,,,,,,,,,,,,,,,,,,,,/muse/elements/blink
2021-11-02 20:23:07.542,1.729528262252479,0.53559310722775,-4.446798686173886,1.254785252205191,0.335471490923373,0.15468320804665,-4.534173742301086,0.2354013812919157,0.4308527244667184,0.4588399860214328,-4.105815249161872,0.539844694187217,0.4893212572123704,0.550655864938586,-3.727317106340049,0.6818123280945869,0.5458954180134027,0.3696797174846703,-3.864480173189803,0.5847493639542495,1099.194139194139,778.8644688644689,1567.399267399268,1106.849816849817,886.4468864468864,-0.396240,0.015137,0.937500,4.530945,-4.927216,-0.328979,1,2,1,2,2,100.000000
2021-11-02 20:23:08.053,,,,,,,,,,,,,,,,,,,,,,,,,,,,,,,,,,,,,,/muse/elements/blink
2021-11-02 20:23:08.210,,,,,,,,,,,,,,,,,,,,,,,,,,,,,,,,,,,,,,/muse/elements/blink
2021-11-02 20:23:08.550,1.729528262252479,1.427798759307699,-4.446798686173886,1.254785252205191,0.335471490923373,1.013950778608119,-4.534173742301086,0.2354013812919157,0.4308527244667184,0.5571924304399513,-4.105815249161872,0.539844694187217,0.4893212572123704,0.5492686851705598,-3.727317106340049,0.6818123280945869,0.5458954180134027,0.4279981208027511,-3.864480173189803,0.5847493639542495,725.6776556776557,840.5128205128206,1348.205128205128,763.956043956044,787.3260073260074,-0.348389,0.015686,0.945251,2.078552,2.856140,-2.758942,1,2,1,2,2,100.000000
2021-11-02 20:23:08.717,,,,,,,,,,,,,,,,,,,,,,,,,,,,,,,,,,,,,,/muse/elements/blink
2021-11-02 20:23:09.136,,,,,,,,,,,,,,,,,,,,,,,,,,,,,,,,,,,,,,/muse/elements/blink
2021-11-02 20:23:09.541,1.729528262252479,1.504214442434337,-4.446798686173886,1.254785252205191,0.335471490923373,1.236312654425755,-4.534173742301086,0.2354013812919157,0.4308527244667184,0.7345766061444201,-4.105815249161872,0.539844694187217,0.4893212572123704,0.7204686373685028,-3.727317106340049,0.6818123280945869,0.5458954180134027,0.3892841414815271,-3.864480173189803,0.5847493639542495,940.8424908424909,816.7399267399268,1642.747252747253,1018.608058608059,967.4358974358975,-0.525330,0.025330,0.855713,9.233856,4.927216,-4.052429,1,2,1,2,2,100.000000
2021-11-02 20:23:09.620,,,,,,,,,,,,,,,,,,,,,,,,,,,,,,,,,,,,,,/muse/elements/blink
2021-11-02 20:23:10.040,,,,,,,,,,,,,,,,,,,,,,,,,,,,,,,,,,,,,,/muse/elements/blink
2021-11-02 20:23:10.219,,,,,,,,,,,,,,,,,,,,,,,,,,,,,,,,,,,,,,/muse/elements/blink
2021-11-02 20:23:10.542,1.729528262252479,1.317132198020542,-4.446798686173886,1.254785252205191,0.335471490923373,1.047133546752824,-4.534173742301086,0.2354013812919157,0.4308527244667184,0.6962657548165931,-4.105815249161872,0.539844694187217,0.4893212572123704,0.7434497734130416,-3.727317106340049,0.6818123280945869,0.5458954180134027,0.55848212524013,-3.864480173189803,0.5847493639542495,875.5677655677656,799.4139194139194,1398.571428571429,893.2967032967033,988.3882783882784,-0.444275,0.054016,0.908447,8.448792,-15.290070,-1.338348,1,2,1,2,2,100.000000
2021-11-02 20:23:10.638,,,,,,,,,,,,,,,,,,,,,,,,,,,,,,,,,,,,,,/muse/elements/blink
2021-11-02 20:23:11.057,,,,,,,,,,,,,,,,,,,,,,,,,,,,,,,,,,,,,,/muse/elements/blink
2021-11-02 20:23:11.430,,,,,,,,,,,,,,,,,,,,,,,,,,,,,,,,,,,,,,/muse/elements/blink
2021-11-02 20:23:11.552,1.729528262252479,1.012431031794468,-4.446798686173886,1.254785252205191,0.335471490923373,0.4197026487522335,-4.534173742301086,0.2354013812919157,0.4308527244667184,0.552477627341376,-4.105815249161872,0.539844694187217,0.4893212572123704,0.4430320243075388,-3.727317106340049,0.6818123280945869,0.5458954180134027,0.3607342276046711,-3.864480173189803,0.5847493639542495,977.1062271062272,810.2930402930403,712.3809523809524,958.5714285714286,881.6117216117217,-0.161133,0.065796,0.991943,8.747864,-10.916138,0.478516,1,2,1,2,2,100.000000
2021-11-02 20:23:11.762,,,,,,,,,,,,,,,,,,,,,,,,,,,,,,,,,,,,,,/muse/elements/blink
2021-11-02 20:23:12.181,,,,,,,,,,,,,,,,,,,,,,,,,,,,,,,,,,,,,,/muse/elements/blink
2021-11-02 20:23:12.381,,,,,,,,,,,,,,,,,,,,,,,,,,,,,,,,,,,,,,/muse/elements/blink
2021-11-02 20:23:12.542,1.361336270550014,1.302957153457842,-4.446798686173886,1.240115303785744,0.3826734351947492,0.3983678767553926,-4.534173742301086,0.8932256573299414,0.3310490404884386,0.8601630470472771,-4.105815249161872,0.7388808657472685,0.5411055487830132,0.2677443206382008,-3.727317106340049,0.8179396736251978,0.07695231081678935,0.0332050873177944,-3.864480173189803,0.1105451952397832,1007.326007326007,809.0842490842491,919.4871794871796,1020.21978021978,992.8205128205128,-0.194275,0.045837,0.981995,7.902985,-13.891907,-3.843079,1,1,1,2,1,100.000000
2021-11-02 20:23:12.801,,,,,,,,,,,,,,,,,,,,,,,,,,,,,,,,,,,,,,/muse/elements/blink
2021-11-02 20:23:13.089,,,,,,,,,,,,,,,,,,,,,,,,,,,,,,,,,,,,,,/muse/elements/blink
2021-11-02 20:23:13.397,,,,,,,,,,,,,,,,,,,,,,,,,,,,,,,,,,,,,,/muse/elements/blink
2021-11-02 20:23:13.542,1.361336270550014,1.501457612216562,-4.446798686173886,1.240115303785744,0.3826734351947492,1.066717895862608,-4.534173742301086,0.8932256573299414,0.3310490404884386,1.124881482307355,-4.105815249161872,0.7388808657472685,0.5411055487830132,0.3145383807645428,-3.727317106340049,0.8179396736251978,0.07695231081678935,0.1562603064463229,-3.864480173189803,0.1105451952397832,964.2124542124542,807.4725274725275,710.7692307692308,963.8095238095239,979.1208791208792,-0.116272,0.056702,0.997986,5.241241,-3.992615,-1.151428,1,1,1,2,1,100.000000
2021-11-02 20:23:13.596,,,,,,,,,,,,,,,,,,,,,,,,,,,,,,,,,,,,,,/muse/elements/blink
2021-11-02 20:23:14.478,,,,,,,,,,,,,,,,,,,,,,,,,,,,,,,,,,,,,,/muse/elements/blink
2021-11-02 20:23:14.542,0.9503672902829758,1.161773565501383,-4.446798686173886,1.064577949156491,0.06775324730101849,0.3759760998404332,-4.534173742301086,0.6225827764327865,0.1470368288338461,0.5515265473363981,-4.105815249161872,0.2953509853042549,0.3186052015597555,0.248808164084567,-3.727317106340049,0.5216955766265171,0.2635506719821732,-0.01603288663567259,-3.864480173189803,0.158914081825404,815.1282051282052,800.2197802197802,1091.941391941392,817.1428571428571,855.4212454212454,-0.151306,0.052185,1.001404,5.891724,3.544006,1.360779,1,1,1,2,1,100.000000
2021-11-02 20:23:14.720,,,,,,,,,,,,,,,,,,,,,,,,,,,,,,,,,,,,,,/muse/elements/blink
2021-11-02 20:23:15.076,,,,,,,,,,,,,,,,,,,,,,,,,,,,,,,,,,,,,,/muse/elements/blink
2021-11-02 20:23:15.411,,,,,,,,,,,,,,,,,,,,,,,,,,,,,,,,,,,,,,/muse/elements/blink
2021-11-02 20:23:15.542,0.9503672902829758,0.7448632972120485,-4.446798686173886,1.064577949156491,0.06775324730101849,0.5203522099334859,-4.534173742301086,0.6225827764327865,0.1470368288338461,0.5234142365787782,-4.105815249161872,0.2953509853042549,0.3186052015597555,0.526736388170541,-3.727317106340049,0.5216955766265171,0.2635506719821732,0.1298133476130235,-3.864480173189803,0.158914081825404,950.9157509157509,823.1868131868132,1435.238095238095,967.4358974358975,1073.809523809524,-0.337036,0.014038,0.954102,0.882263,1.973877,4.889832,1,1,1,2,1,100.000000
2021-11-02 20:23:15.701,,,,,,,,,,,,,,,,,,,,,,,,,,,,,,,,,,,,,,/muse/elements/blink
2021-11-02 20:23:15.919,,,,,,,,,,,,,,,,,,,,,,,,,,,,,,,,,,,,,,/muse/elements/blink
2021-11-02 20:23:16.542,0.959820146720504,1.274462546349463,-4.446798686173886,1.097318460303129,-0.03837203363588396,0.831648521161561,-4.534173742301086,0.6371593344084848,0.1246204230779296,0.6885762777002384,-4.105815249161872,0.2953509853042549,0.3306692941975243,0.7531424795648911,-3.727317106340049,0.54812456815975,0.2548929776481626,0.3905633365821155,-3.864480173189803,0.1256968722507454,892.893772893773,784.5054945054945,964.2124542124542,905.7875457875458,822.3809523809524,-0.218994,0.041260,0.984253,4.717865,-11.402130,-7.028198,1,1,1,2,1,100.000000
2021-11-02 20:23:16.643,,,,,,,,,,,,,,,,,,,,,,,,,,,,,,,,,,,,,,/muse/elements/blink
2021-11-02 20:23:16.818,,,,,,,,,,,,,,,,,,,,,,,,,,,,,,,,,,,,,,/muse/elements/blink
2021-11-02 20:23:17.146,,,,,,,,,,,,,,,,,,,,,,,,,,,,,,,,,,,,,,/muse/elements/blink
2021-11-02 20:23:17.522,,,,,,,,,,,,,,,,,,,,,,,,,,,,,,,,,,,,,,/muse/elements/blink
2021-11-02 20:23:17.542,0.959820146720504,1.385923961071334,-4.446798686173886,1.097318460303129,-0.03837203363588396,0.5592489089117673,-4.534173742301086,0.6371593344084848,0.1246204230779296,0.6301457991966438,-4.105815249161872,0.2953509853042549,0.3306692941975243,0.2470792704741137,-3.727317106340049,0.54812456815975,0.2548929776481626,0.135660091984385,-3.864480173189803,0.1256968722507454,808.2783882783883,595.934065934066,1447.326007326007,821.1721611721612,895.3113553113553,-0.075317,0.080139,0.999939,8.441315,-10.355377,0.650482,1,2,1,2,2,100.000000
2021-11-02 20:23:17.872,,,,,,,,,,,,,,,,,,,,,,,,,,,,,,,,,,,,,,/muse/elements/blink
2021-11-02 20:23:18.374,,,,,,,,,,,,,,,,,,,,,,,,,,,,,,,,,,,,,,/muse/elements/blink
2021-11-02 20:23:18.542,0.959820146720504,2.225780086856301,-4.446798686173886,1.097318460303129,-0.03837203363588396,0.7668771850347801,-4.534173742301086,0.6371593344084848,0.1246204230779296,0.6030483291309811,-4.105815249161872,0.2953509853042549,0.3306692941975243,0.07351911175096065,-3.727317106340049,0.54812456815975,0.2548929776481626,-0.03201327918962087,-3.864480173189803,0.1256968722507454,919.8901098901099,846.5567765567765,55.2014652014652,612.4542124542124,995.6410256410256,-0.056091,0.037048,1.006470,0.037384,-12.082520,5.435638,1,2,1,2,2,100.000000
2021-11-02 20:23:18.662,,,,,,,,,,,,,,,,,,,,,,,,,,,,,,,,,,,,,,/muse/elements/blink
2021-11-02 20:23:18.988,,,,,,,,,,,,,,,,,,,,,,,,,,,,,,,,,,,,,,/muse/elements/blink
2021-11-02 20:23:19.545,0.959820146720504,1.399782320513448,-4.446798686173886,1.097318460303129,-0.03837203363588396,0.82953262232729,-4.534173742301086,0.6371593344084848,0.1246204230779296,-0.01362419650890524,-4.105815249161872,0.2953509853042549,0.3306692941975243,0.0009122207321728635,-3.727317106340049,0.54812456815975,0.2548929776481626,-0.3376248635101778,-3.864480173189803,0.1256968722507454,985.9706959706961,825.6043956043957,637.8388278388279,1031.098901098901,963.8095238095239,-0.004272,-0.000732,1.014954,3.424377,-3.805695,-5.816956,1,2,1,2,2,100.000000
2021-11-02 20:23:19.579,,,,,,,,,,,,,,,,,,,,,,,,,,,,,,,,,,,,,,/muse/elements/blink
2021-11-02 20:23:19.973,,,,,,,,,,,,,,,,,,,,,,,,,,,,,,,,,,,,,,/muse/elements/blink
2021-11-02 20:23:20.213,,,,,,,,,,,,,,,,,,,,,,,,,,,,,,,,,,,,,,/muse/elements/blink
2021-11-02 20:23:20.388,,,,,,,,,,,,,,,,,,,,,,,,,,,,,,,,,,,,,,/muse/elements/blink
2021-11-02 20:23:20.542,0.5716588624431465,0.9625002831364456,-4.446798686173886,1.097318460303129,0.1467374340380607,0.5238105717895276,-4.534173742301086,0.6371593344084848,0.3535288712222189,0.4994915420863631,-4.105815249161872,0.2953509853042549,0.3986461946820669,0.02633289712345638,-3.727317106340049,0.54812456815975,0.434666638585088,-0.1644915493186489,-3.864480173189803,0.1256968722507454,978.7179487179487,819.1575091575091,772.4175824175825,1017.399267399267,923.5164835164835,-0.046570,0.004944,1.010803,4.882355,-3.469238,-3.394470,1,1,1,2,1,100.000000
2021-11-02 20:23:20.718,,,,,,,,,,,,,,,,,,,,,,,,,,,,,,,,,,,,,,/muse/elements/blink
2021-11-02 20:23:20.917,,,,,,,,,,,,,,,,,,,,,,,,,,,,,,,,,,,,,,/muse/elements/blink
2021-11-02 20:23:21.542,0.6006742710759558,1.238375715028597,-4.446798686173886,1.097318460303129,0.2537410629993581,0.8189634837472374,-4.534173742301086,0.6371593344084848,0.3361731293606747,0.7260467384651405,-4.105815249161872,0.2953509853042549,0.4187657146292603,0.2823302696262919,-3.727317106340049,0.54812456815975,0.4689069523607385,0.06683464436290897,-3.864480173189803,0.1256968722507454,900.952380952381,813.1135531135532,795.3846153846154,966.2271062271062,1018.608058608059,-0.011719,-0.007324,1.009949,2.863617,-12.538605,-16.463928,1,1,1,2,1,100.000000
2021-11-02 20:23:21.602,,,,,,,,,,,,,,,,,,,,,,,,,,,,,,,,,,,,,,/muse/elements/blink
2021-11-02 20:23:21.931,,,,,,,,,,,,,,,,,,,,,,,,,,,,,,,,,,,,,,/muse/elements/blink
2021-11-02 20:23:22.130,,,,,,,,,,,,,,,,,,,,,,,,,,,,,,,,,,,,,,/muse/elements/blink
2021-11-02 20:23:22.306,,,,,,,,,,,,,,,,,,,,,,,,,,,,,,,,,,,,,,/muse/elements/blink
2021-11-02 20:23:22.542,1.522053234904659,1.593226900032123,-4.446798686173886,1.28597115271341,1.206959455579269,0.9378558927808303,-4.534173742301086,0.9416670653687798,1.01354385736229,1.016224275288134,-4.105815249161872,0.6361411030665419,0.4980312869893372,0.3701500089971032,-3.727317106340049,0.6533488406745318,0.2483759606914119,0.05792479676605845,-3.864480173189803,0.6578234290704528,848.5714285714286,805.8608058608058,762.7472527472528,878.7912087912089,768.7912087912088,0.013428,-0.018799,0.999573,6.616974,-3.312225,-3.745880,1,1,1,2,1,100.000000
2021-11-02 20:23:22.637,,,,,,,,,,,,,,,,,,,,,,,,,,,,,,,,,,,,,,/muse/elements/blink
2021-11-02 20:23:22.833,,,,,,,,,,,,,,,,,,,,,,,,,,,,,,,,,,,,,,/muse/elements/blink
2021-11-02 20:23:23.163,,,,,,,,,,,,,,,,,,,,,,,,,,,,,,,,,,,,,,/muse/elements/blink
2021-11-02 20:23:23.430,,,,,,,,,,,,,,,,,,,,,,,,,,,,,,,,,,,,,,/muse/elements/blink
2021-11-02 20:23:23.554,1.485387888351786,1.649176239210905,-4.446798686173886,1.272634066243802,1.173798750897324,1.16257914971365,-4.534173742301086,0.9483324962111955,1.01493912651559,0.9920302835786552,-4.105815249161872,0.6590605094316656,0.4805658749611977,0.3938860296312531,-3.727317106340049,0.6510399964682977,0.2180699651323358,-0.05861644901986791,-3.864480173189803,0.6099682807729595,963.8095238095239,808.6813186813187,900.952380952381,968.6446886446887,867.5091575091575,0.008606,0.052307,1.011780,4.680481,-7.925415,-0.157013,1,1,1,2,1,100.000000
2021-11-02 20:23:23.763,,,,,,,,,,,,,,,,,,,,,,,,,,,,,,,,,,,,,,/muse/elements/blink
2021-11-02 20:23:24.138,,,,,,,,,,,,,,,,,,,,,,,,,,,,,,,,,,,,,,/muse/elements/blink
2021-11-02 20:23:24.542,1.48340845129011,1.057593942102068,-4.446798686173886,1.289944344824061,1.17307421604596,0.7350727809498645,-4.534173742301086,0.9806973502457353,1.01493912651559,0.6081205433595275,-4.105815249161872,0.6515880810153635,0.5033094581041596,0.3174166325318823,-3.727317106340049,0.6681263021945978,0.169788062294517,-0.128687572445491,-3.864480173189803,0.564384014970001,903.3699633699634,801.4285714285714,550,916.6666666666667,929.5604395604396,0.028564,0.047485,1.002197,9.630127,-5.196381,2.871094,1,1,1,2,1,100.000000
2021-11-02 20:23:24.843,,,,,,,,,,,,,,,,,,,,,,,,,,,,,,,,,,,,,,/muse/elements/blink
2021-11-02 20:23:25.085,,,,,,,,,,,,,,,,,,,,,,,,,,,,,,,,,,,,,,/muse/elements/blink
2021-11-02 20:23:25.462,,,,,,,,,,,,,,,,,,,,,,,,,,,,,,,,,,,,,,/muse/elements/blink
2021-11-02 20:23:25.542,1.37551298796943,0.5216614600594175,-4.446798686173886,1.658153444378596,0.9254348962882335,0.4547098618536786,-4.534173742301086,0.8670581070572997,1.05674955907442,0.5126443473300698,-4.105815249161872,1.177878825401203,0.7909142288349431,0.2592850565790813,-3.727317106340049,0.584227209149911,0.213098832089878,-0.1801190086487278,-3.864480173189803,0.3873396043385335,850.5860805860806,792.5641025641025,688.2051282051282,866.3003663003664,791.3553113553114,0.015259,0.086182,1.014465,2.415009,-6.579590,-2.848663,1,1,1,2,1,100.000000
2021-11-02 20:23:25.793,,,,,,,,,,,,,,,,,,,,,,,,,,,,,,,,,,,,,,/muse/elements/blink
2021-11-02 20:23:26.300,,,,,,,,,,,,,,,,,,,,,,,,,,,,,,,,,,,,,,/muse/elements/blink
2021-11-02 20:23:26.541,1.371726725569314,0.8294438393632061,-4.446798686173886,1.637209381299439,0.9815120650333544,0.5799191718160319,-4.534173742301086,1.029023817603633,1.120775326567505,0.6271784227931335,-4.105815249161872,1.169576978155914,0.7251505449651772,0.3984775692467301,-3.727317106340049,0.4967142210336035,0.2473013911395048,0.05603723705961856,-3.864480173189803,0.4066397004426988,988.3882783882784,830.0366300366301,779.6703296703297,982.3443223443223,886.8498168498169,-0.021973,0.093018,1.018738,6.998291,-0.732727,0.358887,1,1,1,2,1,100.000000
2021-11-02 20:23:26.895,,,,,,,,,,,,,,,,,,,,,,,,,,,,,,,,,,,,,,/muse/elements/blink
2021-11-02 20:23:27.422,,,,,,,,,,,,,,,,,,,,,,,,,,,,,,,,,,,,,,/muse/elements/blink
2021-11-02 20:23:27.542,1.284810997175236,1.445654812614855,-4.446798686173886,1.188520539929807,0.5946222872075007,1.175048212051643,-4.534173742301086,0.9093991071297818,0.7762196514670046,0.7662876198470702,-4.105815249161872,0.5393607538820293,0.5687621371448424,0.5919924698933153,-3.727317106340049,0.5169939474293319,0.2784860123652697,0.436224851721684,-3.864480173189803,0.4288114045299342,960.1831501831502,785.3113553113553,775.2380952380953,984.7619047619048,978.7179487179487,0.031921,0.046570,1.003662,0.127106,-8.007660,-15.895691,1,1,1,2,1,100.000000
2021-11-02 20:23:27.798,,,,,,,,,,,,,,,,,,,,,,,,,,,,,,,,,,,,,,/muse/elements/blink
2021-11-02 20:23:28.542,1.284810997175236,1.271875682279468,-4.446798686173886,1.188520539929807,0.5946222872075007,0.6728456439343349,-4.534173742301086,0.9093991071297818,0.7762196514670046,0.6190311596707847,-4.105815249161872,0.5393607538820293,0.5687621371448424,0.3894873030639918,-3.727317106340049,0.5169939474293319,0.2784860123652697,0.2544149513155454,-3.864480173189803,0.4288114045299342,877.985347985348,783.2967032967033,847.3626373626374,870.7326007326008,772.4175824175825,0.040955,0.048401,1.011536,7.095490,1.629944,13.906860,1,1,1,2,1,100.000000
2021-11-02 20:23:28.917,,,,,,,,,,,,,,,,,,,,,,,,,,,,,,,,,,,,,,/muse/elements/blink
2021-11-02 20:23:29.116,,,,,,,,,,,,,,,,,,,,,,,,,,,,,,,,,,,,,,/muse/elements/blink
2021-11-02 20:23:29.337,,,,,,,,,,,,,,,,,,,,,,,,,,,,,,,,,,,,,,/muse/elements/blink
2021-11-02 20:23:29.547,1.284810997175236,1.491395730560342,-4.446798686173886,1.188520539929807,0.5946222872075007,1.026218040646032,-4.534173742301086,0.9093991071297818,0.7762196514670046,0.8927837418917913,-4.105815249161872,0.5393607538820293,0.5687621371448424,0.4246996542243822,-3.727317106340049,0.5169939474293319,0.2784860123652697,0.1625047164245174,-3.864480173189803,0.4288114045299342,986.7765567765568,799.0109890109891,769.1941391941392,997.6556776556777,992.4175824175825,0.046692,0.073853,1.005371,4.583282,-4.418793,-1.263580,1,2,1,2,2,100.000000
2021-11-02 20:23:29.860,,,,,,,,,,,,,,,,,,,,,,,,,,,,,,,,,,,,,,/muse/elements/blink
