TimeStamp,Delta_TP9,Delta_AF7,Delta_AF8,Delta_TP10,Theta_TP9,Theta_AF7,Theta_AF8,Theta_TP10,Alpha_TP9,Alpha_AF7,Alpha_AF8,Alpha_TP10,Beta_TP9,Beta_AF7,Beta_AF8,Beta_TP10,Gamma_TP9,Gamma_AF7,Gamma_AF8,Gamma_TP10,RAW_TP9,RAW_AF7,RAW_AF8,RAW_TP10,AUX_RIGHT,Accelerometer_X,Accelerometer_Y,Accelerometer_Z,Gyro_X,Gyro_Y,Gyro_Z,HeadBandOn,HSI_TP9,HSI_AF7,HSI_AF8,HSI_TP10,Battery,Elements
2021-11-25 14:36:08.511,0.2200516018579998,0.5752022959358541,0.5203399048898201,0.1988394071324301,0.251247352342171,0.4100756358185665,0.2991477686759624,0.2916418456536427,0.5900995363077781,0.3737192736750318,0.5182622655084952,0.8824564152341274,0.5009932283563917,1.385998728520534,0.1032752561361412,0.7098589358100382,0.04166972985351903,1.131949077820607,-0.3584823898158304,0.7977817519423223,810.2930402930403,795.3846153846154,803.040293040293,805.8608058608058,697.4725274725275,0.241821,-0.124451,0.991211,4.852448,-7.170258,-1.689758,1,1,1,1,1,90.000000
2021-11-25 14:36:08.898,,,,,,,,,,,,,,,,,,,,,,,,,,,,,,,,,,,,,,/muse/elements/blink
2021-11-25 14:36:09.313,,,,,,,,,,,,,,,,,,,,,,,,,,,,,,,,,,,,,,/muse/elements/blink
2021-11-25 14:36:09.519,0.2572033848261643,0.5795452548022612,0.9220780908088929,0.004122965808173095,0.2062542550245003,0.3943537528774343,0.7673714087445564,0.06473752608766382,0.4540292644336305,0.3685551953508461,0.7565846574613511,0.7286459352147781,0.5685091826471416,1.445049899141911,-0.001220548854946331,0.6812976725889301,-0.06171039142394166,1.031708396448743,-0.4508330824558295,0.9210105041820323,836.4835164835165,754.6886446886447,780.8791208791209,840.1098901098901,667.6556776556777,0.224792,-0.152649,0.994080,0.732727,-9.278717,-4.134674,1,1,1,1,1,90.000000
2021-11-25 14:36:09.813,,,,,,,,,,,,,,,,,,,,,,,,,,,,,,,,,,,,,,/muse/elements/blink
2021-11-25 14:36:10.511,0.2306822430645767,0.6334633949232146,1.293287288826401,-0.02503191979316031,0.2196854142932092,0.4148895909333847,1.093277321751885,0.05780071601487659,0.344837889436637,0.2816443835164457,0.7634095422872235,0.6892970178033937,0.6358835580771802,1.475310793254171,0.1370286195284026,0.7349013101756916,-0.0005781858312388435,0.972637348442239,-0.3826146592090066,0.9664896456032842,802.2344322344322,785.3113553113553,804.2490842490843,799.8168498168499,753.8827838827839,0.225769,-0.148987,0.976746,3.065491,-6.624451,-2.444916,1,1,1,1,1,90.000000
2021-11-25 14:36:11.523,0.6852991969916358,0.9417632071478659,0.6119554621300367,0.4140357527133112,0.4192537984363931,-0.1382519472052354,0.2077778200166497,0.3089726852136747,0.5286714531890045,0.5005386552336556,0.07597040806780639,1.016259656268434,0.4110527229350335,1.495921508178849,0.1103602652015789,0.824187427128988,-0.2688348586833336,0.9274205831187646,-0.4310023963499481,0.6666337493236382,792.1611721611722,810.2930402930403,803.4432234432235,794.5787545787546,735.3479853479854,0.232971,-0.155396,0.981201,5.809479,-4.321594,-4.964600,1,1,1,1,1,90.000000
2021-11-25 14:36:12.512,0.2085192807300133,0.8119656290929219,-0.141259775824165,0.114267596602108,0.4458352590552625,0.04431422753986326,-0.3233413098748228,0.5513741571352365,0.6104647245406953,0.6604957937720509,-0.02827118839831304,1.036426234154394,0.5104499780873378,1.484703764786442,-0.1076072278660162,0.727876544711741,-0.03086751599352382,0.9969038591641425,-0.3967110850498582,0.5324723707942971,799.0109890109891,787.3260073260074,799.0109890109891,788.9377289377289,706.7399267399268,0.242859,-0.156433,0.956604,3.663635,-6.729126,-1.555176,1,1,1,1,1,90.000000
2021-11-25 14:36:13.512,0.07751746191338936,0.2791666784806516,-0.4180389949733997,0.004214365345614157,0.3774642376081753,0.199218006371064,-0.4209291190924649,0.4255508661614237,0.8050090290300042,0.6480025662958073,0.08185854279583367,0.7477509466139166,0.5042400884827895,1.521006522191467,-0.01418128756301851,0.8786284158168024,0.05999436847387186,0.8450059837345965,-0.4523881491539202,0.6652352489559005,787.7289377289378,794.1758241758242,785.7142857142858,778.0586080586081,741.7948717948718,0.260620,-0.156982,0.968018,4.493561,-3.424377,-7.020721,1,1,1,1,1,90.000000
2021-11-25 14:36:14.191,,,,,,,,,,,,,,,,,,,,,,,,,,,,,,,,,,,,,,/muse/elements/blink
2021-11-25 14:36:14.511,0.1874865905229944,0.2515156304350469,0.8137133002277631,0.2257410985707241,0.1729071663018224,-0.05402985511254228,0.6431540249248798,0.5470730679017142,0.797403260021071,0.3231283888753003,0.4756600150721557,0.7750520285991352,0.2965210155646939,1.481130884988543,0.008445819754201568,1.180220337326684,0.04319239978712135,0.600029907673337,-0.493934421196053,0.5431080790906095,806.6666666666667,847.7655677655678,792.1611721611722,807.0695970695971,687.8021978021978,-0.013611,0.096680,1.002319,15.402222,13.174133,9.009552,1,1,1,1,1,90.000000
2021-11-25 14:36:14.881,,,,,,,,,,,,,,,,,,,,,,,,,,,,,,,,,,,,,,/muse/elements/blink
2021-11-25 14:36:15.515,0.2728484714391263,0.3853854291099645,1.454232508903206,0.4129092069960454,0.1707708556454443,-0.01302713763758656,0.9419485334926586,0.5970978463962925,0.6094130955276379,0.1195746602948347,0.457556294843836,0.7524978919022839,0.3680812069327844,1.424392316587133,-0.005424460758038017,1.244060922036955,-0.07304345160452001,0.6593849030982234,-0.4051110940722078,0.5612159696831402,801.8315018315019,758.3150183150184,788.1318681318681,770,787.3260073260074,0.145386,-0.141357,0.990906,2.190704,-13.936768,4.037476,1,1,1,1,1,90.000000
2021-11-25 14:36:16.113,,,,,,,,,,,,,,,,,,,,,,,,,,,,,,,,,,,,,,/muse/elements/blink
2021-11-25 14:36:16.516,0.2728484714391263,0.3853854291099645,1.492063456414915,0.4129092069960454,0.1707708556454443,-0.01302713763758656,1.041729608558141,0.5970978463962925,0.6094130955276379,0.1195746602948347,0.919935430948571,0.7524978919022839,0.3680812069327844,1.424392316587133,0.08099247472673717,1.244060922036955,-0.07304345160452001,0.6593849030982234,-0.2023835877460019,0.5612159696831402,801.8315018315019,758.7179487179487,792.967032967033,801.8315018315019,693.8461538461538,0.126587,0.036072,1.002197,2.788849,-7.215118,-2.624359,1,1,1,1,1,85.000000
2021-11-25 14:36:17.319,,,,,,,,,,,,,,,,,,,,,,,,,,,,,,,,,,,,,,/muse/elements/blink
2021-11-25 14:36:17.527,0.9396283089456516,0.3853854291099645,1.389527354642048,0.8534375197263556,0.5428903578378013,-0.01302713763758656,1.159297857960651,0.6151821032659841,0.8183424419851449,0.1195746602948347,0.9212582768193238,0.6852979975514163,0.5212177735604516,1.424392316587133,0.003745433568590071,0.5986277143820657,0.0430729670890326,0.6593849030982234,-0.2794661525203775,0.3721532041081373,799.8168498168499,766.7765567765568,803.4432234432235,803.040293040293,989.1941391941392,0.114197,0.067749,1.009888,8.426361,-3.633728,0.254211,1,2,1,1,2,85.000000
2021-11-25 14:36:17.933,,,,,,,,,,,,,,,,,,,,,,,,,,,,,,,,,,,,,,/muse/elements/blink
2021-11-25 14:36:18.519,1.24711603940398,0.3353346980514325,0.2466576208215968,1.134408623514662,0.9114562911256366,0.2084019672073747,0.288507845893469,0.8544166459736359,1.191133792546239,0.7242878606227808,0.4464620829522642,0.999409819247156,0.8154623264163429,1.328410621992498,-0.1267499083788181,0.8533052848894709,0.0141647174410185,0.6911959433758496,-0.4738129402117432,0.4369414527818941,792.1611721611722,696.2637362637363,803.4432234432235,805.0549450549451,999.6703296703297,0.108154,0.087646,1.002808,4.403839,-5.390778,-1.375732,1,1,1,1,1,85.000000
2021-11-25 14:36:19.238,,,,,,,,,,,,,,,,,,,,,,,,,,,,,,,,,,,,,,/muse/elements/blink
2021-11-25 14:36:19.512,1.029106876336568,0.7186759495498919,1.053677378125583,1.114345204275879,0.7667390598013489,0.2182218772307858,0.8078298156191559,0.8295358198971899,1.129578723869662,0.6360915477963087,0.7768527328181118,0.984454999087768,0.7135534777443163,1.289189045359506,-0.09290803221172793,0.8816878104902278,0.02566860872002635,0.6088654650395101,-0.312318983854206,0.315117523187556,782.893772893773,747.4358974358975,803.040293040293,805.0549450549451,620.9157509157509,0.013245,0.087891,0.995117,0.239258,-7.065582,-8.762817,1,1,1,1,1,85.000000
2021-11-25 14:36:20.356,,,,,,,,,,,,,,,,,,,,,,,,,,,,,,,,,,,,,,/muse/elements/blink
2021-11-25 14:36:20.517,1.029106876336568,0.7186759495498919,1.442230858355049,1.114345204275879,0.7667390598013489,0.2182218772307858,1.157115130337796,0.8295358198971899,1.129578723869662,0.6360915477963087,1.020846529479538,0.984454999087768,0.7135534777443163,1.289189045359506,0.03443951761207158,0.8816878104902278,0.02566860872002635,0.6088654650395101,-0.4353774639089263,0.315117523187556,868.7179487179487,753.8827838827839,809.8901098901099,875.9706959706959,712.3809523809524,0.168396,0.105408,0.997498,5.891724,-8.172150,-3.282318,1,1,1,1,1,85.000000
2021-11-25 14:36:20.969,,,,,,,,,,,,,,,,,,,,,,,,,,,,,,,,,,,,,,/muse/elements/blink
2021-11-25 14:36:21.512,1.029106876336568,0.7186759495498919,1.515563655890349,1.114345204275879,0.7667390598013489,0.2182218772307858,1.243344219915589,0.8295358198971899,1.129578723869662,0.6360915477963087,1.162586616916251,0.984454999087768,0.7135534777443163,1.289189045359506,0.04769868063475875,0.8816878104902278,0.02566860872002635,0.6088654650395101,-0.3549217169037689,0.315117523187556,783.6996336996338,758.7179487179487,805.0549450549451,795.3846153846154,878.7912087912089,0.168091,0.140198,0.975525,2.915955,-5.884247,-2.108459,1,2,1,1,2,85.000000
2021-11-25 14:36:22.105,,,,,,,,,,,,,,,,,,,,,,,,,,,,,,,,,,,,,,/muse/elements/blink
2021-11-25 14:36:22.512,1.029106876336568,1.182557259496896,0.6177441162489813,1.114345204275879,0.7667390598013489,0.5684654533994292,0.3053108778853627,0.8295358198971899,1.129578723869662,0.9674210420415101,0.5420735936476163,0.984454999087768,0.7135534777443163,1.053451252076144,0.0703516972382482,0.8816878104902278,0.02566860872002635,0.7387728389257379,-0.1862522803146347,0.315117523187556,798.2051282051282,780.8791208791209,796.996336996337,796.1904761904763,689.4139194139194,0.185608,0.130554,0.978699,4.142151,-4.972076,-1.772003,1,2,1,1,2,85.000000
2021-11-25 14:36:23.517,1.5986797333714,0.1535826440634041,0.422955321434416,1.565253893312988,1.05140100679737,0.1712856327928317,0.1274267895927527,1.212296573844232,0.8223473927652249,0.3851454733662062,0.4244081829637081,0.5666865479782603,0.5123886683050025,1.237220365148211,-0.05966143155368812,0.5721973138222564,0.1434057712733772,0.6199372181679731,-0.3455143275728448,0.3674662488363311,807.0695970695971,789.3406593406594,796.5934065934066,789.3406593406594,796.5934065934066,0.188599,0.131165,0.981079,4.613190,-4.209442,-2.071075,1,1,1,1,1,85.000000
2021-11-25 14:36:24.512,1.341811675506581,-0.001743386916815832,-0.1345602835379951,1.281844666747664,0.8990292305637955,-0.03881546439875733,-0.200939764809144,1.020174605919783,0.8452867607538503,0.4551618347265473,0.1459939612315068,0.7525174401243604,0.5088321685826734,1.225530398366691,-0.1256310586898137,0.475499579560678,0.1948588923327102,0.6497954160254,-0.2480783044472062,0.4166344501142701,803.4432234432235,749.4505494505495,799.4139194139194,814.3223443223443,873.956043956044,0.168762,0.118408,0.989502,4.605713,-1.704712,-0.358887,1,1,1,1,1,85.000000
2021-11-25 14:36:25.511,1.374368653565724,1.134309234049071,-0.3437547528372344,1.002429256384155,0.8691412309438429,0.1676153712748801,-0.1545330407759763,0.8461659638256436,0.8622500290070025,0.3659289017190785,0.2726354723353785,0.8347662535307614,0.5609356270101281,1.249681868234696,-0.06357122972617932,0.6414860212453547,0.1913913259807369,0.6418733673573814,-0.1581524727155098,0.3291930175002859,783.2967032967033,760.3296703296703,795.7875457875458,772.4175824175825,722.0512820512821,0.095947,0.069519,1.006836,2.639313,-3.715973,-2.422485,1,1,1,1,1,85.000000
2021-11-25 14:36:26.522,1.673397870509983,1.591711867217057,0.09244849331414963,1.461570493821248,0.7588657863843107,0.5067473135558077,0.02676200977465133,0.8076329444830809,0.9519108615859577,0.6077456872791039,0.3845669383723762,0.9384041282068012,0.6002955192741151,1.049674449679804,-0.07918951243523453,0.6168691548473337,0.4576761233149873,0.5912147412880759,-0.2031006298236516,0.2689422236071709,678.5347985347986,884.8351648351648,826.4102564102565,701.0989010989011,720.0366300366301,0.111267,0.094910,0.988342,5.899200,-10.205841,-2.983246,1,1,1,1,1,85.000000
2021-11-25 14:36:26.555,,,,,,,,,,,,,,,,,,,,,,,,,,,,,,,,,,,,,,/muse/elements/blink
2021-11-25 14:36:27.511,1.358788486850359,1.591711867217057,0.5715395116465772,1.411100395055226,0.4250626200734269,0.5067473135558077,0.4855997324176923,0.7259684326932077,0.8384624559603321,0.6077456872791039,0.6051794223825557,0.89696643211814,0.6532578400586349,1.049674449679804,0.09792555360880598,0.4613465797970306,0.5583472700160647,0.5912147412880759,-0.212500347285561,0.3286360578162651,799.8168498168499,770,789.7435897435897,786.1172161172161,776.4468864468864,0.178345,0.107117,0.989502,4.276733,-4.306641,-1.218719,1,1,1,1,1,85.000000
2021-11-25 14:36:28.512,1.064577278270369,0.9889056886977141,0.1568205924963128,1.181375333249459,1.035156552919403,0.2131774130960923,-0.02048539851676646,0.9235233661345686,0.9445013308637199,0.5440844050392087,0.1399748653713268,1.041572446741589,0.488652953810607,1.183522099350028,0.1108416973957395,0.7275568462071065,0.2512213464819155,0.6838284531291124,-0.3349173627405005,0.3196298810313277,807.0695970695971,805.8608058608058,803.4432234432235,811.0989010989011,684.5787545787546,0.180054,0.109741,0.984924,5.226288,-3.970184,-2.265472,1,1,1,1,1,85.000000
2021-11-25 14:36:29.512,1.148591561632488,0.3656886986124218,-0.2304604997475374,1.066998485244519,1.13008670765458,0.1702226061319092,0.02030805945600386,1.059097063220298,1.023669780028813,0.5183816442660607,0.2837989083632864,1.048254343711528,0.4187810554892076,1.208572304828823,0.05272501301334706,0.6469886811990208,0.08475782397354288,0.6604729280671607,-0.2226704561582576,0.2459440863261533,798.2051282051282,784.1025641025641,796.1904761904763,813.5164835164835,674.9084249084249,0.179443,0.110901,0.984253,4.172058,-4.994507,-0.456085,1,1,1,1,1,85.000000
2021-11-25 14:36:30.225,,,,,,,,,,,,,,,,,,,,,,,,,,,,,,,,,,,,,,/muse/elements/blink
2021-11-25 14:36:30.512,1.154439656451566,1.177463789895021,0.1235761253169405,1.053410001027533,1.139714786559886,0.787925308604858,0.3156817832160408,1.088695350698387,1.321074495147991,0.8507036242883269,0.4559757087372658,1.216650940668428,0.4954442446128337,1.178844119095388,-0.04594164441539422,0.6157691406542893,0.2405464291247172,0.5524821575585162,-0.123503755015631,0.2340064640077938,793.7728937728938,681.3553113553114,810.6959706959707,793.7728937728938,981.1355311355312,0.171265,0.112915,0.981750,6.616974,-3.790741,-1.226196,1,1,1,1,1,85.000000
2021-11-25 14:36:30.842,,,,,,,,,,,,,,,,,,,,,,,,,,,,,,,,,,,,,,/muse/elements/blink
2021-11-25 14:36:31.525,1.301090877078994,1.42071220568803,1.394729451760969,1.203208106820609,1.449831475850892,1.251493997724205,1.095559339733937,1.323785029998453,1.420162863991777,0.8596800701944823,1.157587022038411,1.257251423407201,0.6425775743950572,1.151120270590847,0.1081350870338295,0.8389252536016495,0.3722858805840581,0.5355243557653182,-0.2594131454108248,0.3895850654906886,782.893772893773,821.978021978022,793.3699633699634,782.0879120879121,715.2014652014652,0.195190,0.120178,0.985107,4.964600,-4.979553,-1.330872,1,1,1,1,1,85.000000
2021-11-25 14:36:32.238,,,,,,,,,,,,,,,,,,,,,,,,,,,,,,,,,,,,,,/muse/elements/blink
2021-11-25 14:36:32.512,1.359595403933054,1.552253586050356,1.395175593771374,1.281477546053859,1.535602291648596,-0.08464352758854886,1.080122824841442,1.405738035252707,1.420162863991777,0.2582259786492205,1.157587022038411,1.257251423407201,0.6877517526640217,1.222637591786075,0.07120103439889042,0.8828205356091895,0.4045489944383742,0.571841650211999,-0.5966427507787968,0.4052988719379649,790.5494505494506,801.8315018315019,790.5494505494506,770,736.1538461538462,0.185486,0.109497,0.981628,2.811279,-3.626251,-1.562653,1,1,1,1,1,85.000000
2021-11-25 14:36:32.835,,,,,,,,,,,,,,,,,,,,,,,,,,,,,,,,,,,,,,/muse/elements/blink
2021-11-25 14:36:33.075,,,,,,,,,,,,,,,,,,,,,,,,,,,,,,,,,,,,,,/muse/elements/blink
2021-11-25 14:36:33.511,1.359595403933054,1.562780253056359,1.456029728171503,1.281477546053859,1.535602291648596,-0.1029369120166738,1.304416143423665,1.405738035252707,1.420162863991777,0.2442994513519449,1.010097777194713,1.257251423407201,0.6877517526640217,1.204664138033155,0.09226411159064565,0.8828205356091895,0.4045489944383742,0.5610449698624924,-0.4103645993605949,0.4052988719379649,797.8021978021978,767.5824175824176,798.6080586080586,795.7875457875458,1160.03663003663,0.198547,-0.138611,0.976196,0.396271,-7.147827,0.785065,1,2,1,1,2,85.000000
2021-11-25 14:36:34.512,1.01417032050268,1.348111724484022,-0.02604632462102748,0.8468689575896439,0.7999552776064403,0.6851462238577842,-0.180112850984575,0.5813414608953953,0.9702560242917136,0.4317871448337981,-0.0116766108807761,1.050544285491577,0.8752419981375125,1.184646423266004,0.1255067097695316,1.027229819917497,0.3018992730339602,0.839637058311814,-0.3005455067722156,0.6669177192807351,845.3479853479854,786.9230769230769,759.92673992674,834.4688644688645,722.8571428571429,0.279175,-0.182190,0.964783,5.136566,-8.695526,-5.929108,1,1,1,1,1,85.000000
2021-11-25 14:36:34.562,,,,,,,,,,,,,,,,,,,,,,,,,,,,,,,,,,,,,,/muse/elements/blink
2021-11-25 14:36:35.519,0.9483572887854589,1.153370789530509,1.364317193440909,0.7728404113540492,0.7147106137469427,0.6352163623816902,1.221393245322172,0.5641194152658392,0.9759179450493605,0.5138012265995482,1.154121298750222,1.134439253190428,0.8044636458309524,1.184889179513515,0.2058869545499136,1.038667663061377,0.2309561421543516,0.7609834687959232,-0.3161860244791145,0.6169762520438353,784.5054945054945,855.8241758241759,797.3992673992674,772.014652014652,810.2930402930403,0.311035,-0.169250,0.933899,2.684174,-6.302948,0.142059,1,1,1,1,1,85.000000
2021-11-25 14:36:36.304,,,,,,,,,,,,,,,,,,,,,,,,,,,,,,,,,,,,,,/muse/elements/blink
2021-11-25 14:36:36.484,,,,,,,,,,,,,,,,,,,,,,,,,,,,,,,,,,,,,,/muse/elements/blink
2021-11-25 14:36:36.511,0.6561631106248905,1.235837221902417,1.035143869410477,0.6217776433538416,0.6825463326770606,0.7394809933217863,0.680582748336235,0.6005876812033856,0.435830683770969,0.8874243796523269,0.8912370296082353,1.169092337885441,0.4064080671420603,1.094690986820043,0.1143568474740329,1.035099654956775,0.2133373978604433,0.3728828807135006,-0.3989075895976353,0.526508222711416,813.5164835164835,757.9120879120879,783.2967032967033,825.2014652014652,801.8315018315019,0.341675,-0.145508,0.957214,5.218811,-5.861816,-1.001892,1,1,1,1,1,85.000000
2021-11-25 14:36:37.512,0.7728949991554914,1.412341312552574,0.6925622837678512,0.7891787554235445,0.8762522858639179,0.8988184682733735,0.3461868827739794,0.6613315043727619,0.3977900610389195,0.8840735111249682,0.3767269840993154,1.114156595221672,0.4622044952778412,1.072773577456625,0.1546618161897476,1.049980225054639,0.3549182695722761,0.3711262748108125,-0.420606967426849,0.6204678191240416,790.952380952381,821.1721611721612,792.967032967033,787.7289377289378,714.3956043956044,0.365417,-0.141479,0.942871,3.902893,-4.074860,-2.108459,1,1,1,1,1,85.000000
2021-11-25 14:36:37.952,,,,,,,,,,,,,,,,,,,,,,,,,,,,,,,,,,,,,,/muse/elements/blink
2021-11-25 14:36:38.512,0.7728949991554914,0.4427226922749806,1.429913186902353,0.7891787554235445,0.8762522858639179,-0.05527386710381477,1.316865217129092,0.6613315043727619,0.3977900610389195,0.1332700470441695,1.119637633429154,1.114156595221672,0.4622044952778412,1.04269255208548,0.2273795386561409,1.049980225054639,0.3549182695722761,0.6321706925055042,-0.2188307728621861,0.6204678191240416,812.3076923076924,802.6373626373627,798.2051282051282,811.9047619047619,668.8644688644689,0.360901,-0.150330,0.937012,4.187012,-4.306641,-1.472931,1,1,1,1,1,85.000000
2021-11-25 14:36:39.511,0.9647621134029973,1.228519664414494,1.386135674171323,0.3856150256433721,0.5685946532194605,0.8054423746722291,1.240284688426693,0.3719223780971109,0.5303576864461401,0.9755964485922247,1.119637633429154,1.210732956151628,0.2653396669731503,1.149010727726882,0.2294232709196324,0.7513123651840412,0.2268771559246932,0.4099204545174125,-0.1458795053373436,0.3463994728748156,804.2490842490843,796.996336996337,798.2051282051282,811.9047619047619,908.6080586080586,0.339783,-0.145569,0.929321,5.764618,-2.736511,-1.106567,1,1,1,1,1,85.000000
2021-11-25 14:36:39.861,,,,,,,,,,,,,,,,,,,,,,,,,,,,,,,,,,,,,,/muse/elements/blink
2021-11-25 14:36:40.512,1.165796622719776,1.501485951738599,1.245548678678825,0.3398948466649547,0.7233954810649056,1.042894244445265,1.054075950640087,0.3718137295541157,0.7282577375934326,1.028186132874602,1.09872817747717,1.244224356782138,0.263228516091994,1.131117123859892,0.2265746551579776,0.7294072021056424,0.2640300944921085,0.5224483094027614,-0.5039932840098342,0.3999695707518439,788.1318681318681,809.8901098901099,785.3113553113553,794.5787545787546,699.4871794871796,0.337585,-0.138733,0.941711,4.658051,-4.702911,-0.994415,1,1,1,1,1,85.000000
2021-11-25 14:36:41.514,-0.1822292033919136,1.119175645683168,1.13476999926172,0.452368508098205,0.5095326853242838,0.5049472844104517,0.9292854056016573,0.5460111830843872,0.6722030327712714,0.4813848252861271,1.081024953613039,0.9251890510865225,0.4352314340115386,1.153603906694962,0.1967707331697348,0.5834813517504852,0.1246046247358231,0.4185612876658027,-0.4996802920862877,0.3005448575308442,798.6080586080586,807.4725274725275,792.1611721611722,803.4432234432235,622.9304029304029,0.337097,-0.141052,0.948242,4.635620,-4.149628,-2.018738,1,1,1,1,1,85.000000
2021-11-25 14:36:42.122,,,,,,,,,,,,,,,,,,,,,,,,,,,,,,,,,,,,,,/muse/elements/blink
2021-11-25 14:36:42.515,0.6868637159562296,1.391467963184457,1.132631679214328,0.2919710197846127,0.4456923584676021,0.8389156553865835,0.9357719747682557,0.2218441684075288,0.5839072703559857,0.9010175391164658,0.8570480565511713,0.8308437616191222,0.4589271005468184,1.15645470498787,-0.007879489018812243,0.5661043984984271,0.1502799629208635,0.4578774506732087,-0.3339879305564735,0.1536555726904012,792.5641025641025,793.7728937728938,794.5787545787546,794.5787545787546,686.1904761904763,0.335999,-0.141602,0.948547,4.246826,-4.074860,-2.018738,1,1,1,1,1,85.000000
2021-11-25 14:36:43.511,-0.143324184476896,0.9417245233402737,1.18698962953901,-0.4041414446975921,-0.4143662817385186,0.006828827241629343,0.9435092615049943,0.03639684545097555,0.3370507250192898,0.4082724193881756,0.8570480565511713,0.2425518498160505,0.1762117159756479,1.060928632373699,0.09008969864831205,0.4955985511301187,0.1340146460713566,0.4713061606341936,-0.2391390241813575,0.3753516138419864,783.6996336996338,839.7069597069598,793.7728937728938,791.3553113553114,652.3443223443223,0.345459,-0.148010,0.931396,5.966492,-0.986938,-2.788849,1,1,1,1,1,85.000000
2021-11-25 14:36:43.946,,,,,,,,,,,,,,,,,,,,,,,,,,,,,,,,,,,,,,/muse/elements/blink
2021-11-25 14:36:44.515,0.1673862862850135,1.395733702703124,0.8462412265247047,0.1101142225568902,-0.2278259288203888,0.1473332040760097,0.9180898258344017,0.2283983078545512,0.4065649146741407,0.4339431319741941,0.9217149658576318,0.5487235203807734,0.2160420577477236,1.058131159693289,0.110141935867582,0.4431585319469246,0.06170821714353917,0.4353950611155358,-0.3294083859403481,0.2881420018630934,777.6556776556777,803.8461538461539,788.1318681318681,771.6117216117216,717.2161172161173,0.126770,-0.072021,0.997742,1.816864,-6.400146,-5.420685,1,1,1,1,1,85.000000
2021-11-25 14:36:45.164,,,,,,,,,,,,,,,,,,,,,,,,,,,,,,,,,,,,,,/muse/elements/blink
2021-11-25 14:36:45.512,0.9618458305712997,1.624480691414608,1.329913878202296,0.8407402576770862,0.7525463405173839,0.2590674023460799,1.242797318332411,0.8647198344122337,0.9987440792580174,0.2313035340941123,1.119904942838477,1.144161368432075,0.4158271642556515,1.056025731718945,0.1345476582597548,0.6451569083520327,-0.03305220968474605,0.3551330669825112,-0.4837335706993256,0.2447815358597512,803.040293040293,813.5164835164835,792.967032967033,803.040293040293,706.3369963369963,0.283875,-0.197327,0.944397,-2.676697,-8.067474,-8.478699,1,1,1,1,1,85.000000
2021-11-25 14:36:46.512,0.6441817424419499,0.7113277304598122,1.443910554377979,0.369215751071756,-0.02474473089510809,0.1043788617909557,1.245912210339585,0.06500940752098919,0.8005394144318548,0.4113691266848666,1.119489419435163,0.7043558913467803,0.2728316394561758,1.087782505498216,0.1056546715759729,0.9584052251760411,0.1404541838992537,0.2876114779703126,-0.5294306662249045,0.8879644715921469,800.6227106227107,820.3663003663004,796.5934065934066,784.5054945054945,646.7032967032967,0.326050,-0.264587,0.932068,3.738403,-6.519775,-4.284210,1,1,1,1,1,85.000000
2021-11-25 14:36:47.511,0.6344426426774533,0.5821985149615562,0.08011484409610858,0.4095778976359818,0.2209888471028147,0.1729904912404585,0.03440528808630968,0.2466982831223758,0.8221719892712004,0.6672387535495183,0.248539316989589,0.7303668635789152,0.5107092572567328,1.029372026558562,-0.09931989358091074,0.8976253429582662,0.04478170278302985,0.4483426344097868,-0.4287777987954576,0.774439116734164,794.5787545787546,802.2344322344322,799.4139194139194,805.8608058608058,834.0659340659341,0.354980,-0.291077,0.919617,3.566437,-4.949646,-5.158997,1,1,1,1,1,90.000000
2021-11-25 14:36:48.513,0.7302788337809115,0.637256058314151,0.1094892485126188,0.5348205161725975,0.2297381231012408,0.2807640353234538,0.2039969522338197,0.1445724908469586,0.6997166563403973,0.6154052663767846,0.1999988218473925,0.6133026695578421,0.5423054887375169,1.079616466694719,-0.1473190584172095,0.8628788902322155,0.1467838442334148,0.2430205511961949,-0.3421312645368511,0.5801358900056028,790.1465201465202,778.0586080586081,791.7582417582418,779.2673992673992,805.8608058608058,0.346802,-0.285706,0.907959,4.957123,-5.233765,-1.614990,1,1,1,1,1,90.000000
2021-11-25 14:36:49.511,0.5592903202211098,0.6165797998785113,0.1458193741132496,0.07584928024485396,0.2400546769440614,0.3708846457449607,-0.07077993428722132,-0.004743359544228315,0.7153805863581715,0.5640032579407039,0.08786337362663092,0.7671943790554964,0.2890920814765966,1.120866917662463,-0.08445904555236802,0.8271304339641258,0.1024048119120905,0.4211288100127732,-0.2893481687018955,0.6290126011274795,805.4578754578755,798.2051282051282,790.1465201465202,799.4139194139194,668.0586080586081,0.311096,-0.302185,0.913513,2.452393,-4.889832,-4.822540,1,1,1,1,1,90.000000
2021-11-25 14:36:49.877,,,,,,,,,,,,,,,,,,,,,,,,,,,,,,,,,,,,,,/muse/elements/blink
2021-11-25 14:36:50.511,1.245554288243952,1.0922131959673,1.109460049522391,0.8692377492043654,0.8974706914612837,0.8021616137928721,0.8871076502646111,0.5240642236221007,1.05994957735818,0.8214259367434035,0.8555531916293208,0.8934494197991782,0.4563312815111177,1.170318961796984,0.09598663454863593,0.8620945096090571,0.2208736665526308,0.6798363779306636,-0.4497840923361679,0.6037884402155814,784.5054945054945,790.1465201465202,793.7728937728938,788.9377289377289,800.6227106227107,0.326721,-0.290588,0.914368,4.351501,-5.570221,-1.420593,1,1,1,1,1,90.000000
2021-11-25 14:36:51.511,0.5523410876936224,0.4251791523751355,0.9152858903214588,0.51857783594163,0.610301264948385,0.4006851439474258,0.727086090237838,0.562194224205788,0.9979964450460057,0.658388043789997,0.8555531916293208,1.099027545799494,0.5248625321799919,1.029603782003811,0.1633361777459961,0.8347764620074426,0.06641400056644081,0.5598579712934657,-0.4365072129026679,0.5885573856066091,865.4945054945056,741.7948717948718,747.8388278388279,869.1208791208792,842.1245421245421,0.308899,-0.302551,0.916321,6.213226,-0.837402,1.435547,1,1,1,1,1,90.000000
2021-11-25 14:36:51.630,,,,,,,,,,,,,,,,,,,,,,,,,,,,,,,,,,,,,,/muse/elements/blink
2021-11-25 14:36:52.520,0.535000992315756,0.3820091456896537,0.2203501708038366,0.486076449515811,0.6841910217036141,0.4290648292641213,0.2050802737691376,0.5038373023623798,0.9578545793335461,0.6580275926281361,0.4393853230552603,0.4429579508533386,0.5071689408410061,1.022439505131277,0.2027709106474717,0.8972897734880663,-0.06097854812615015,0.5867934269530001,-0.5336601724510259,0.6543263422999792,875.5677655677656,820.7692307692308,753.4798534798535,872.3443223443223,729.3040293040293,0.340637,-0.295776,0.919373,5.173950,-5.914154,0.934601,1,1,1,1,1,90.000000
2021-11-25 14:36:52.665,,,,,,,,,,,,,,,,,,,,,,,,,,,,,,,,,,,,,,/muse/elements/blink
2021-11-25 14:36:53.512,0.535000992315756,0.3554610870844666,1.372461195485337,0.486076449515811,0.6841910217036141,0.4084635755649964,1.178518602204138,0.5038373023623798,0.9578545793335461,0.633537638527081,0.8747350141623467,0.4429579508533386,0.5071689408410061,1.019702521261968,0.1711513957808236,0.8972897734880663,-0.06097854812615015,0.596361940345134,-0.3010641867665114,0.6543263422999792,835.2747252747253,777.6556776556777,779.2673992673992,823.992673992674,701.0989010989011,0.347290,-0.312134,0.900024,4.411316,-5.689850,-1.218719,1,1,1,1,1,90.000000
2021-11-25 14:36:53.566,,,,,,,,,,,,,,,,,,,,,,,,,,,,,,,,,,,,,,/muse/elements/blink
2021-11-25 14:36:54.311,,,,,,,,,,,,,,,,,,,,,,,,,,,,,,,,,,,,,,/muse/elements/blink
2021-11-25 14:36:54.510,0.535000992315756,0.3554610870844666,1.230325836531968,0.486076449515811,0.6841910217036141,0.4084635755649964,1.035267998678225,0.5038373023623798,0.9578545793335461,0.633537638527081,1.050886595790958,0.4429579508533386,0.5071689408410061,1.019702521261968,0.1317494932291625,0.8972897734880663,-0.06097854812615015,0.596361940345134,-0.1471979357115492,0.6543263422999792,797.8021978021978,814.3223443223443,785.3113553113553,805.8608058608058,799.0109890109891,0.357788,-0.308472,0.909790,4.366455,-7.693634,-0.254211,1,2,1,1,2,90.000000
2021-11-25 14:36:55.513,0.535000992315756,0.3554610870844666,1.435667614462922,0.486076449515811,0.6841910217036141,0.4084635755649964,1.285295987981951,0.5038373023623798,0.9578545793335461,0.633537638527081,1.254481722456328,0.4429579508533386,0.5071689408410061,1.019702521261968,0.1708826595836487,0.8972897734880663,-0.06097854812615015,0.596361940345134,-0.276849020267642,0.6543263422999792,802.6373626373627,805.4578754578755,789.3406593406594,801.8315018315019,730.5128205128206,0.253540,-0.306824,0.918823,7.319794,-1.936493,-3.872986,1,2,1,1,2,90.000000
2021-11-25 14:36:56.402,,,,,,,,,,,,,,,,,,,,,,,,,,,,,,,,,,,,,,/muse/elements/blink
2021-11-25 14:36:56.525,0.646538068910798,1.276878034050645,1.059658470960126,0.9150781675719658,0.7759920557502321,0.9120438925015848,0.6952065726122769,0.5145566342097505,0.6018706760489547,1.001423658024558,0.9715923844001384,0.6291283025527307,0.4477094166839485,1.200872636281769,0.03279472467525076,0.9070315718259836,0.2505819756265674,0.5050443333328416,-0.3689864373808036,0.614303906231019,799.8168498168499,802.6373626373627,794.1758241758242,786.9230769230769,697.4725274725275,0.272034,-0.304260,0.899170,-2.803802,-0.613098,0.867310,1,1,1,1,1,90.000000
2021-11-25 14:36:57.515,0.6433561157221571,1.092878336890864,1.473914438740971,0.5194780759593667,0.8646054703982587,0.9476633740255909,1.242721879279382,0.4673411012795524,0.555224193942958,1.001423658024558,1.209035522549538,0.5255447136954425,0.3814436903327911,1.176114362864297,0.04603814705791325,0.8441894921137229,0.1718701485223197,0.4364049620638282,-0.3472105333254427,0.6849692091897741,724.8717948717949,820.3663003663004,825.2014652014652,722.4542124542124,938.8278388278388,0.309326,-0.278442,0.919373,4.261780,-4.433746,-2.415009,1,1,1,1,1,85.000000
2021-11-25 14:36:57.728,,,,,,,,,,,,,,,,,,,,,,,,,,,,,,,,,,,,,,/muse/elements/blink
2021-11-25 14:36:58.511,0.6153514432141616,0.9248768246207435,1.465571067330237,0.4991963149365863,0.7564774198343572,0.7824492879141048,1.304115255905284,0.4189288148411542,0.5629335775124659,1.001125996318221,1.253292591430597,0.5255603868073051,0.4275212767864786,1.158583644283588,0.05968587006627069,0.8642940676851818,0.2145285737883888,0.4185440167799665,-0.3392713560111765,0.6822426661188064,784.9084249084249,786.9230769230769,792.5641025641025,793.7728937728938,680.5494505494506,0.310608,-0.268188,0.940552,5.644989,-4.261780,2.310333,1,1,1,1,1,85.000000
2021-11-25 14:36:59.511,0.6818103822792981,1.208746584818602,1.342411714577965,0.5764454814283455,0.6124212012281837,0.8926010431945997,1.122834115850041,0.1796368518451336,0.46153408347,0.6421057424406568,1.253292591430597,0.6919295221727981,0.550046739302035,1.002804065776552,0.1081990267267327,0.7253239914710053,-0.03489591263439366,0.6137791519388562,-0.2072931091587967,0.4404474112031992,804.2490842490843,790.952380952381,791.7582417582418,798.2051282051282,820.7692307692308,0.283691,-0.285767,0.927734,4.994507,-3.155212,-3.087921,1,1,1,1,1,85.000000
2021-11-25 14:37:00.069,,,,,,,,,,,,,,,,,,,,,,,,,,,,,,,,,,,,,,/muse/elements/blink
2021-11-25 14:37:00.511,0.4543298635795674,0.8711343989018572,1.089234745702303,0.4325522158452295,0.430276971199585,0.5859050981481404,1.054385994110044,0.2845518433958686,0.4596035170049614,0.3036368430847662,0.8940212386486498,0.7562115833343027,0.2747395394526924,1.090283481708966,-0.008190717074884399,0.7961455921627649,-0.1382545486730463,0.3614424110956894,-0.341324707375772,0.5169148275371256,797.8021978021978,791.7582417582418,792.967032967033,785.3113553113553,768.3882783882784,0.278137,-0.286438,0.928162,4.269257,-3.850555,-2.586975,1,1,1,1,1,85.000000
2021-11-25 14:37:01.474,,,,,,,,,,,,,,,,,,,,,,,,,,,,,,,,,,,,,,/muse/elements/blink
2021-11-25 14:37:01.511,0.783622909486844,0.9529776986009482,1.159555512030426,0.8063990729303314,0.4226975218762719,0.1722777740837771,1.087943001911667,0.4687524738823923,0.2528375591921093,0.3850572074063175,0.9060747513460492,0.9447826331493656,0.3885086224995912,1.191259396873426,0.05519230819316111,1.017664698052403,0.168403962159688,0.3099463345625506,-0.3465483075115703,0.6512643838139927,806.6666666666667,789.3406593406594,792.967032967033,814.7252747252747,737.3626373626374,0.331970,-0.280090,0.925110,4.329071,-6.721649,-1.046753,1,1,1,1,1,85.000000
2021-11-25 14:37:02.516,0.651650512666248,0.8317263754494368,0.7987359070371959,0.6892878774867155,0.2522624292217955,0.1098764926502094,0.7497071881216579,0.5048674988566891,0.2612615496562142,0.39831962836465,0.4622137043559466,0.9186034241316242,0.3220279586221624,1.129041147983127,0.08512851227804107,0.9408220612140038,0.09987762100729018,0.261744814894298,-0.4065273491777062,0.5632997306889518,790.5494505494506,784.5054945054945,794.981684981685,786.9230769230769,747.032967032967,0.338623,-0.276367,0.911621,5.248718,-4.276733,-1.039276,1,1,1,1,1,85.000000
2021-11-25 14:37:03.511,0.42267467487378,0.5609524158761183,0.4365499061115094,0.2865006791285056,0.2145324971895726,0.4117507274702316,0.37549541126549,0.5175635350954005,0.6624306551980358,0.4503522960953059,0.4159853164065042,0.805288678413363,0.4895672326501689,1.12317245591873,-0.03979657474851824,0.8654748639306171,0.2997122250725881,0.3337297348633251,-0.4030100414630495,0.6113148431259587,793.7728937728938,797.3992673992674,797.8021978021978,803.4432234432235,752.2710622710623,0.331787,-0.260925,0.927551,6.519775,-5.286102,-2.145844,1,1,1,1,1,85.000000
2021-11-25 14:37:04.514,1.135416786915441,1.163361583489538,0.6826629395097931,0.595106874398687,0.7237151588263376,0.774581798725493,0.436635859372235,0.5113823463180911,0.8493551418680124,0.6914193818702032,0.5825663400283158,0.9875123374507823,0.6344283955294077,1.11938476773494,0.05328613891865161,0.8648909926561642,0.2657340389227461,0.5296176982457163,-0.2842531782763276,0.6152533852429865,794.981684981685,799.4139194139194,795.3846153846154,796.5934065934066,701.5018315018315,0.328369,-0.297607,0.910828,2.863617,-3.252411,-1.719666,1,1,1,1,1,85.000000
2021-11-25 14:37:05.511,0.5645810302304555,0.5324486488700854,0.2869214147054814,0.318932734753787,0.3075972866668066,0.228015901457776,-0.02045524771261005,0.2025347032048192,0.5523950664947993,0.507857416046939,0.4114037605608176,0.9431744782661295,0.5497848179656727,1.126320533706429,0.1833655535904307,0.9892189474426079,0.1300432654909385,0.481950553303848,-0.1562807672476738,0.5628854201558511,792.5641025641025,801.025641025641,798.2051282051282,791.7582417582418,762.7472527472528,0.329346,-0.286743,0.915833,0.635529,-2.160797,2.960815,1,1,1,1,1,85.000000
2021-11-25 14:37:06.495,,,,,,,,,,,,,,,,,,,,,,,,,,,,,,,,,,,,,,/muse/elements/blink
2021-11-25 14:37:06.511,0.6277701808017515,0.6024496111419292,0.5784628250057985,0.6560087573131459,0.3045905632058111,0.139227494341939,0.2725687316081037,0.4403754506021586,0.6260080113037425,0.4801380893727016,0.6055817159874616,0.953454924041662,0.4947543503679648,1.119859416814454,0.07049341937566896,0.9316054109869457,0.1514778605226335,0.541732940578259,-0.2773218884460538,0.7337861840515001,807.8754578754579,751.4652014652015,794.981684981685,806.2637362637363,784.1025641025641,0.314209,-0.319031,0.910339,4.643097,-4.747772,-1.585083,1,1,1,1,1,85.000000
2021-11-25 14:37:07.511,0.9481442286414843,0.9682516414872168,1.253209181114964,0.6862591611454988,0.5323213911463868,0.6398552421360687,1.105629041852519,0.3891175183796526,0.5987292250727924,0.544307324853007,0.9606306736613834,0.6809018846817602,0.5584162326558687,0.9992984596307474,0.1658181689364239,0.9181359248860962,0.0763587267956109,0.4077747750351287,-0.2202457860210274,0.7236481982397711,790.952380952381,806.2637362637363,787.3260073260074,789.7435897435897,679.7435897435897,0.326965,-0.324219,0.906067,4.358978,-5.727234,-0.605621,1,1,1,1,1,85.000000
2021-11-25 14:37:08.318,,,,,,,,,,,,,,,,,,,,,,,,,,,,,,,,,,,,,,/muse/elements/blink
2021-11-25 14:37:08.511,1.148072977913174,1.313432774327654,0.9912240795016042,0.3471968247518268,0.7046678761524585,0.8881180664431901,0.6701409632658732,0.2473089703139345,0.3426326752401424,0.7919872560806122,0.9388571259237033,0.8713373547826306,0.4890958565897042,0.9834977169120076,0.06634816909372353,0.8360357976836046,-0.041333203244301,0.5408662886942497,-0.4485810649468168,0.6961252156176757,804.6520146520147,790.952380952381,793.7728937728938,783.2967032967033,665.6410256410256,0.332336,-0.319153,0.903503,4.097290,-5.787048,-1.899109,1,1,1,1,1,85.000000
2021-11-25 14:37:09.516,0.8585491818858387,1.008163604152937,1.22918077106936,0.08862448808192977,0.5280669923081783,0.4966053584734476,0.9126312114174659,0.1863069443699671,0.4990087213496044,0.6713277490487272,1.076275309812714,0.7606884935684521,0.5412952926239545,1.14201879710536,0.1150463981321336,0.9434427688042361,0.05528027025576835,0.5743882888714432,-0.5012916946338293,0.5565890600373191,805.0549450549451,807.4725274725275,790.1465201465202,788.1318681318681,685.7875457875458,0.349670,-0.307678,0.909058,3.401947,-7.581482,-2.564545,1,1,1,1,1,85.000000
2021-11-25 14:37:10.511,0.7050149087626381,1.100315670145459,0.3225729285687071,0.1353196442494971,0.7822158463338668,0.5007396300869615,0.2440132887712202,0.5373282292047099,0.7202927748867221,0.7809088255885208,0.5129442633626169,0.6947804658504668,0.5853147853422842,1.091376253722167,-0.03485176905574287,0.7132827726008356,0.1837844048886787,0.512224248792579,-0.5365249095664227,0.6396914199196369,792.967032967033,805.0549450549451,797.3992673992674,798.6080586080586,679.3406593406594,0.347412,-0.318359,0.901428,4.179535,-3.775787,-2.572021,1,1,1,1,1,85.000000
2021-11-25 14:37:10.953,,,,,,,,,,,,,,,,,,,,,,,,,,,,,,,,,,,,,,/muse/elements/blink
2021-11-25 14:37:11.518,0.5987684312012028,0.7191720598134697,1.091335113567644,0.1624689354711252,0.5690526155652026,0.3802807466529154,0.9123292943006193,0.4099526734290299,0.5243727477188672,0.4835282701526006,1.056115509325046,0.5783555732527094,0.4076821213051979,1.039497309816409,-0.01159118641959418,0.8217260526564109,0.2298393712867887,0.4716086160547882,-0.3811675697005262,0.5891756061616417,814.7252747252747,801.025641025641,782.0879120879121,803.4432234432235,846.959706959707,0.347778,-0.318665,0.894836,5.450592,-3.506622,0.142059,1,1,1,1,1,85.000000
2021-11-25 14:37:12.346,,,,,,,,,,,,,,,,,,,,,,,,,,,,,,,,,,,,,,/muse/elements/blink
2021-11-25 14:37:12.511,1.052675104496228,0.454980078391058,1.257395564691492,0.4809675491236967,0.4506118370311332,0.2489342890058305,1.084276419575812,0.5521651083372578,0.8452374196010548,0.1232585624668793,1.056115509325046,0.7516466089811933,0.3715790011503755,1.013228941979404,0.08629207692595604,0.8374945656648906,0.04826216479280798,0.4432817394057382,-0.3422732379191827,0.4228053709077169,819.1575091575091,780.0732600732601,793.3699633699634,798.6080586080586,721.6483516483516,0.356018,-0.315552,0.897339,5.615082,-5.921631,-1.981354,1,1,1,1,1,85.000000
2021-11-25 14:37:13.512,1.034569319423425,1.138861075946474,1.210393193394542,0.9150551794692249,0.3079634891031281,0.6676302376192841,1.024453452602383,0.5368811512875725,1.060266535870104,0.7599223191108664,0.9838262332923264,0.8471380458159704,0.4549941210914029,1.066525912870211,0.06714273246730502,0.9581532852855436,0.08489572232155075,0.5903061446323644,-0.3812957167119554,0.583923739837628,797.8021978021978,796.996336996337,792.1611721611722,785.3113553113553,666.0439560439561,0.303162,-0.288696,0.929626,5.577698,-5.069275,-3.529053,1,1,1,1,1,85.000000
2021-11-25 14:37:14.177,,,,,,,,,,,,,,,,,,,,,,,,,,,,,,,,,,,,,,/muse/elements/blink
2021-11-25 14:37:14.518,0.8501696444982837,0.8238592635125891,0.9602994650031309,1.009417492107821,0.4274095263371435,0.5607610696907519,0.6065305862489304,0.3729007569024639,1.023253233782523,0.8442168739581654,0.7176546765770523,0.7909289565148221,0.5483122905171597,1.016255635187977,-0.03289526639447685,1.047880564209067,0.3656235487050825,0.5501746694645508,-0.3573468822272475,0.7911728312293519,795.7875457875458,801.4285714285714,785.7142857142858,794.981684981685,704.3223443223443,0.292419,-0.201477,0.937744,7.387085,-7.297363,0.179443,1,1,1,1,1,85.000000
2021-11-25 14:37:15.511,1.267275470802197,1.340411759064645,1.082598995117882,1.414605287023331,0.8548001729754026,0.9807468902706129,0.8163416980230683,0.9706968443010093,0.7412352650823002,0.4623087808401978,0.7409263656380659,0.8851772291566777,0.8893042329409184,1.216303135406684,0.1287149816480808,0.9668779081479438,0.3954237233502181,0.4303674845553995,-0.2857314570158846,0.767479108267218,776.8498168498169,778.8644688644689,807.0695970695971,797.8021978021978,712.3809523809524,0.436218,-0.182922,0.908813,4.501038,-2.886047,-2.355194,1,1,1,1,1,85.000000
2021-11-25 14:37:16.254,,,,,,,,,,,,,,,,,,,,,,,,,,,,,,,,,,,,,,/muse/elements/blink
2021-11-25 14:37:16.511,1.2076249251954,1.318778187509522,1.135914901847894,1.293822687532763,0.9198418197120745,0.9821013334903312,0.7692701669695855,0.82095340177079,0.9242609641920904,0.5660372072574997,0.534710454938783,0.9427852116059532,0.8403358948279084,1.211836342440816,0.1854050080935806,1.03780333366261,0.4896437869381996,0.4148018040326805,-0.2504555503777047,0.8425500478924358,790.5494505494506,811.5018315018315,804.2490842490843,796.5934065934066,695.8608058608058,0.445190,-0.199280,0.883972,4.314117,-5.458069,-2.646790,1,1,1,1,1,85.000000
2021-11-25 14:37:17.513,0.7338338017419861,0.6419093139809052,1.229821214314919,0.1348356130481066,0.6161288294674944,0.3825063378512855,0.8363166823988946,0.3307332762402674,0.8914158413355849,0.3892589595073689,0.5368594535548704,0.5410463299452111,0.6749688042517462,1.025956351241823,0.1279822876082351,0.6198439659531599,0.3275793774018885,0.8087072888341263,-0.2230953304252996,0.5173607994282629,796.5934065934066,799.0109890109891,790.1465201465202,821.5750915750916,751.8681318681319,0.450073,-0.205017,0.885986,4.859924,-4.261780,-1.786957,1,1,1,1,1,85.000000
2021-11-25 14:37:18.511,0.4070930980332819,0.4744945728744628,-0.1622493213679336,0.2855621146832417,0.2920747419898464,0.2501657272404349,-0.1700599197331588,0.2582127346853343,0.596436026296934,0.4533122178548616,-0.07314164797020793,0.6122933163853502,0.636217310273148,0.9465554079417695,0.165480584871359,0.6907985471474062,0.3098059279605285,0.638389954992488,-0.1542661019263591,0.4810775004977405,812.3076923076924,807.0695970695971,793.7728937728938,785.7142857142858,662.014652014652,0.466064,-0.188965,0.911255,14.220886,17.323761,-6.803894,1,1,1,1,1,85.000000
2021-11-25 14:37:18.962,,,,,,,,,,,,,,,,,,,,,,,,,,,,,,,,,,,,,,/muse/elements/blink
2021-11-25 14:37:19.511,0.5008473589629483,0.8903200586943814,1.06599207989024,0.4208475888986305,0.3716966178384516,1.028027944887466,0.9373326762794382,0.1668632305613712,0.4243625405410911,0.9979466333242728,0.6068007224938566,0.3521685044499912,0.5526004709357681,1.004618229505772,0.1728340827720519,0.7784602151823401,0.4157957916273547,0.3947362584905549,-0.2290155727379314,0.5063468446763797,796.996336996337,797.3992673992674,798.6080586080586,832.0512820512821,671.6849816849817,0.213562,-0.216370,0.980835,12.673187,-3.641205,-7.850647,1,1,1,1,1,85.000000
2021-11-25 14:37:20.511,1.372521074543934,1.157803476404362,1.094041682936656,0.944029518565932,0.8297292759723625,1.076669802375303,0.8974890539450803,0.6099770829687841,0.7734676740430707,1.003875870021522,0.6068007224938566,0.9330462486356279,0.5851203139429394,0.9847496923306294,0.1737751652457744,0.997230510918926,0.6102088875158773,0.5021946691196367,-0.2344707689093704,0.8313162382457728,786.9230769230769,786.9230769230769,793.3699633699634,788.1318681318681,962.6007326007326,0.308228,-0.157349,0.968262,7.431946,-11.289978,-4.082336,1,1,1,1,1,85.000000
2021-11-25 14:37:21.300,,,,,,,,,,,,,,,,,,,,,,,,,,,,,,,,,,,,,,/muse/elements/blink
2021-11-25 14:37:21.512,1.402672636654747,1.333864829374487,0.9947920762834231,1.215260005432819,0.6723295672697609,0.7920181095469082,0.6833327616748283,0.316478811382249,1.01270211136453,0.9383934930568613,0.8580278493765549,1.083870607984157,0.6183485348866206,1.057523855617073,0.04423311733337169,0.9801344601153575,0.5921989763768364,0.2245076577438552,-0.2318332910782559,0.8311457603788511,799.8168498168499,780.4761904761905,799.4139194139194,805.4578754578755,705.934065934066,0.358215,-0.180786,0.943604,0.381317,-7.985229,-1.846771,1,1,1,1,1,85.000000
2021-11-25 14:37:22.511,1.616054465790459,1.39469709159834,1.158106193479601,1.502052416721542,0.8153485655455484,1.150673160031256,0.9776889023287737,0.2328156074767266,1.044611003996399,0.9528971097965268,0.8979820068270645,0.8433189109083411,0.6959324160504762,1.069763231746687,0.205393138863455,0.899198751339614,0.4847973614944503,0.4195592055206468,-0.2807889742095576,0.7283236567226397,835.6776556776557,782.4908424908425,779.6703296703297,833.6630036630037,699.8901098901099,0.376343,-0.204407,0.919189,6.639404,-4.792633,-1.465454,1,1,1,1,1,85.000000
2021-11-25 14:37:22.515,,,,,,,,,,,,,,,,,,,,,,,,,,,,,,,,,,,,,,/muse/elements/blink
2021-11-25 14:37:23.236,,,,,,,,,,,,,,,,,,,,,,,,,,,,,,,,,,,,,,/muse/elements/blink
2021-11-25 14:37:23.512,1.616054465790459,1.39469709159834,0.5421790268861194,1.502052416721542,0.8153485655455484,1.150673160031256,0.2271798413298984,0.2328156074767266,1.044611003996399,0.9528971097965268,0.4391911385299458,0.8433189109083411,0.6959324160504762,1.069763231746687,0.3092320105958863,0.899198751339614,0.4847973614944503,0.4195592055206468,-0.2478154646753174,0.7283236567226397,794.1758241758242,787.3260073260074,803.8461538461539,789.3406593406594,770.8058608058608,0.395203,-0.204407,0.916504,4.493561,-3.162689,-1.069183,1,1,1,1,1,85.000000
2021-11-25 14:37:23.955,,,,,,,,,,,,,,,,,,,,,,,,,,,,,,,,,,,,,,/muse/elements/blink
2021-11-25 14:37:24.511,1.616054465790459,1.39469709159834,1.861285610032772,1.502052416721542,0.8153485655455484,1.150673160031256,1.62985788982857,0.2328156074767266,1.044611003996399,0.9528971097965268,1.078302300481272,0.8433189109083411,0.6959324160504762,1.069763231746687,0.2047468514640349,0.899198751339614,0.4847973614944503,0.4195592055206468,0.02410488570019398,0.7283236567226397,795.3846153846154,801.025641025641,803.4432234432235,797.8021978021978,654.3589743589744,0.394287,-0.214783,0.901855,4.284210,-4.059906,-1.966400,1,2,1,1,2,85.000000
2021-11-25 14:37:25.510,1.145249359482803,0.9372418662462731,1.438675665969058,1.293221241846432,0.6529327931233702,0.7486722416957898,1.168219359706345,0.5376611934691293,1.037460096711969,0.5073025589090358,1.078302300481272,0.7002454382935199,0.5715459911340856,1.104416910229576,0.1329536232969899,0.869395358923712,0.390152744018283,0.2861671703302086,-0.1067953185206036,0.7888416729069906,698.2783882783883,909.4139194139194,813.919413919414,685.3846153846154,738.974358974359,0.394531,-0.229614,0.915771,8.284302,-0.037384,-2.497253,1,1,1,1,1,85.000000
2021-11-25 14:37:25.662,,,,,,,,,,,,,,,,,,,,,,,,,,,,,,,,,,,,,,/muse/elements/blink
2021-11-25 14:37:26.512,1.145249359482803,0.9524560810114677,1.338930490312829,1.241115352704862,0.6529327931233702,0.7631862612652175,1.180704937877846,0.4915430228467019,1.037460096711969,0.5073025589090358,1.132537853969917,0.6895559528082731,0.5715459911340856,1.121856086308491,0.2271943241646166,0.8829367130402503,0.390152744018283,0.2723403009559753,-0.2277461467995235,0.7756272477452165,790.952380952381,780.4761904761905,790.952380952381,794.5787545787546,716.8131868131868,0.281067,-0.027039,0.968994,2.370148,-8.680573,-2.579498,1,1,1,1,1,85.000000
2021-11-25 14:37:27.511,0.9046978145012238,0.5462165449251064,1.108359048917922,0.9754805776456962,0.6978720337650677,0.3430288494054637,0.950968392114202,0.7355353649548061,1.04845464393808,0.4512175496694883,1.110572560577354,0.8059626435372017,0.5556046246761294,0.8856327443402799,0.07719623738189897,0.6640886170211776,0.3664677599910114,0.3276829746388255,-0.3852394951648804,0.6505740906030422,797.8021978021978,798.6080586080586,790.5494505494506,797.3992673992674,665.6410256410256,0.310425,-0.050476,0.960815,4.329071,-4.471130,-3.401947,1,1,1,1,1,85.000000
2021-11-25 14:37:27.918,,,,,,,,,,,,,,,,,,,,,,,,,,,,,,,,,,,,,,/muse/elements/blink
2021-11-25 14:37:28.187,,,,,,,,,,,,,,,,,,,,,,,,,,,,,,,,,,,,,,/muse/elements/blink
2021-11-25 14:37:28.511,0.8203796083645279,0.3120267906593228,0.7291851551707289,0.8575542143503145,0.431716876977335,0.08488305020298544,0.7219217669610155,0.3814412146513038,0.9457595494161731,0.4734973867052755,0.582971937693714,0.7961976651135859,0.6580574133055803,0.9584591041867366,-0.03072365903760495,0.6679162084231673,0.3312232977644446,0.2568948445659271,-0.3443473531925426,0.6029683354558441,782.4908424908425,803.4432234432235,790.5494505494506,789.3406593406594,649.5238095238095,0.343811,-0.047974,0.955078,3.887939,-5.854340,-1.786957,1,1,1,1,1,85.000000
2021-11-25 14:37:29.511,0.09353824631752466,0.2187660158882117,0.8346733918101992,0.2028079822958913,-0.1055417479191211,-0.03471498392284415,0.8652364819063615,0.1592710574450242,0.4011689255017811,0.1874739678466052,0.5712475255815391,0.8873531016712065,0.3670573290647627,1.07630708170193,0.04209439974020462,0.8548321217227586,0.3752531452315119,0.2757430974352411,-0.1976460325862342,0.4718185080288786,794.981684981685,777.2527472527473,792.1611721611722,779.2673992673992,794.981684981685,0.352478,-0.056458,0.949402,4.710388,-4.456177,-0.859833,1,1,1,1,1,85.000000
2021-11-25 14:37:29.926,,,,,,,,,,,,,,,,,,,,,,,,,,,,,,,,,,,,,,/muse/elements/blink
2021-11-25 14:37:30.511,0.07221580401409802,0.3612430877396158,1.061765187722843,0.1942104556818663,-0.1373687748467776,-0.01811137483605635,0.9917755590561355,0.1219511807907074,0.4284524036315472,0.2460483121942909,0.961483502328747,0.9316169599752609,0.3957821309079546,1.052898418897006,-0.01788354852621758,0.8296220924891823,0.3935172241041575,0.2638796830036305,-0.2744812158839174,0.4452903381896385,803.040293040293,809.8901098901099,800.6227106227107,808.2783882783883,697.0695970695971,0.343079,-0.053650,0.952881,4.553375,-5.383301,-1.899109,1,1,1,1,1,85.000000
2021-11-25 14:37:31.511,0.4820349730049819,0.6571963514996803,1.032164315115078,0.7078406134613755,0.4924635890480087,0.4229852380085376,0.9156050299241871,0.5868792757735847,0.7515804281014308,0.4218176413504545,0.961483502328747,0.6289795482748398,0.4545252960318704,1.012537635632966,-0.01862201371913793,0.7277597334151931,0.4586501615309035,0.4011404112987659,-0.3171160566052897,0.5134949573694073,795.3846153846154,795.3846153846154,799.4139194139194,790.1465201465202,854.2124542124542,0.366638,-0.050232,0.942810,3.970184,-7.230072,-2.063599,1,1,1,1,1,85.000000
2021-11-25 14:37:32.455,,,,,,,,,,,,,,,,,,,,,,,,,,,,,,,,,,,,,,/muse/elements/blink
2021-11-25 14:37:32.511,0.2983076742130287,0.4325837757392952,-0.004818090422547161,0.4615522134060004,0.3944371291415782,0.3938252205021756,-0.1349518971314982,0.4285707284916951,0.6491651776587433,0.4906569270708256,0.04202147118119662,0.4189215112343901,0.3910394097387483,0.9723991947671262,-0.09653219469467962,0.5639677864489978,0.2921650270127648,0.3828679188847146,-0.3348142376336993,0.4889195997121784,809.8901098901099,780.0732600732601,797.8021978021978,817.948717948718,765.9706959706959,0.360840,-0.066162,0.935913,0.575714,-4.605713,1.091614,1,1,1,1,1,85.000000
2021-11-25 14:37:32.982,,,,,,,,,,,,,,,,,,,,,,,,,,,,,,,,,,,,,,/muse/elements/blink
2021-11-25 14:37:33.291,,,,,,,,,,,,,,,,,,,,,,,,,,,,,,,,,,,,,,/muse/elements/blink
2021-11-25 14:37:33.511,0.06626964213302527,-0.5062343445544678,1.119210956788969,-0.252352894623551,0.3997263871759412,0.0261656632326647,0.9781683374089413,0.06191987479756123,0.6141220270366945,0.3961023264029439,0.8283138219307805,-0.1465921700296249,0.3302564423788685,0.9797109048413563,-0.1386475704498887,0.4737839468549425,0.145877241660163,0.3039862513141712,-0.2486512202508626,0.4904612979134077,780.8791208791209,791.3553113553114,795.3846153846154,793.3699633699634,585.0549450549451,0.397766,-0.139282,0.905457,5.757141,-10.789032,-1.181335,1,1,4,1,1,85.000000
2021-11-25 14:37:33.838,,,,,,,,,,,,,,,,,,,,,,,,,,,,,,,,,,,,,,/muse/elements/blink
2021-11-25 14:37:34.188,,,,,,,,,,,,,,,,,,,,,,,,,,,,,,,,,,,,,,/muse/elements/blink
2021-11-25 14:37:34.510,0.06626964213302527,-0.5062343445544678,1.660796975753162,-0.252352894623551,0.3997263871759412,0.0261656632326647,1.467511542900536,0.06191987479756123,0.6141220270366945,0.3961023264029439,0.9867517620037992,-0.1465921700296249,0.3302564423788685,0.9797109048413563,0.06605739226219753,0.4737839468549425,0.145877241660163,0.3039862513141712,-0.1374361038776468,0.4904612979134077,801.025641025641,786.5201465201466,796.996336996337,827.2161172161173,759.92673992674,0.393555,-0.100342,0.921021,3.745880,-4.029999,-0.411224,1,1,1,1,1,85.000000
2021-11-25 14:37:34.623,,,,,,,,,,,,,,,,,,,,,,,,,,,,,,,,,,,,,,/muse/elements/blink
2021-11-25 14:37:35.511,0.06626964213302527,-0.5062343445544678,1.701869974745325,-0.252352894623551,0.3997263871759412,0.0261656632326647,1.49988143729672,0.06191987479756123,0.6141220270366945,0.3961023264029439,0.9867517620037992,-0.1465921700296249,0.3302564423788685,0.9797109048413563,0.07965794170868865,0.4737839468549425,0.145877241660163,0.3039862513141712,-0.1830791159593508,0.4904612979134077,802.2344322344322,792.967032967033,796.996336996337,801.8315018315019,693.4432234432235,0.392517,-0.128418,0.924133,4.650574,-4.329071,-1.039276,1,2,1,1,2,85.000000
2021-11-25 14:37:36.511,0.1535787711572966,0.1784125997258017,0.04587266226450042,-0.2683163280227477,0.3076483942058124,0.2650460662942697,-0.3201942730789923,0.5945390460949529,0.5653402436038936,0.224934052558752,0.01126700489474603,0.4177086474324164,0.6666666085220737,1.011105784793722,0.1900931780975179,0.745571163135744,0.5612228472115012,0.424782200996456,-0.08776004553746766,0.5187412711752352,797.3992673992674,808.6813186813187,794.981684981685,786.5201465201466,720.0366300366301,0.384888,-0.128235,0.926880,4.927216,-5.345917,-2.198181,1,1,1,1,1,85.000000
2021-11-25 14:37:37.056,,,,,,,,,,,,,,,,,,,,,,,,,,,,,,,,,,,,,,/muse/elements/blink
2021-11-25 14:37:37.511,0.07194706998363073,0.3761542322780346,0.1103901335538145,-0.3731193860032314,0.3821778940547821,0.4524641479707736,-0.1929030066773847,0.5744504756508927,0.5934907615994858,0.2166327937767974,-0.07049299737377206,0.5486164472281753,0.6927586823204235,1.090317555122131,0.2333061598715974,0.800175773296074,0.5553653099986224,0.4244717915791038,0.03150342799536582,0.474832902248991,824.7985347985348,783.6996336996338,801.025641025641,813.1135531135532,665.2380952380953,0.203979,-0.097839,0.984375,-0.007477,0.605621,-10.415192,1,1,1,1,1,85.000000
2021-11-25 14:37:37.853,,,,,,,,,,,,,,,,,,,,,,,,,,,,,,,,,,,,,,/muse/elements/blink
2021-11-25 14:37:38.510,0.07035523537839006,0.524843388436382,1.601960982058782,-0.4210936830208376,0.3389534240490048,0.5258990475204784,0.9860098155879891,0.5749631698357808,0.5629937642037792,0.0553328677229009,0.2889811295551414,0.5059516577351735,0.6726726499178182,1.090398711617643,0.04330825087725758,0.8769309396753773,0.5416812148217218,0.5242715733883941,-0.1841068845011194,0.3728222394613209,784.1025641025641,787.3260073260074,793.3699633699634,801.8315018315019,705.5311355311355,0.246094,-0.145142,0.962097,3.648682,-9.473114,7.312317,1,1,1,1,1,80.000000
2021-11-25 14:37:39.511,1.173359506300139,0.9098451539562031,1.206533279842974,1.263034855409457,0.3191317008599647,0.5542009175195434,0.5985060385402268,0.4642100417844188,0.7412495429341441,0.5742534888085653,0.5113586327273006,0.9567561227945326,0.5468172643976303,1.068304882682063,0.08512888385408551,0.9484821205111074,0.5270338370445793,0.4012506314643182,-0.161760843713006,0.6622332054819983,817.948717948718,826.4102564102565,790.952380952381,775.2380952380953,622.1245421245421,0.283020,-0.151917,0.955383,2.923431,-6.527252,-1.585083,1,1,1,1,1,80.000000
2021-11-25 14:37:40.279,,,,,,,,,,,,,,,,,,,,,,,,,,,,,,,,,,,,,,/muse/elements/blink
2021-11-25 14:37:40.512,1.365683524457354,1.354929649184624,0.8601569407255459,1.162079831619019,0.4640986767850664,0.4834761774680205,0.8435853753115815,0.453538033689549,0.6843307912611909,0.5969796753126789,0.9587271090861853,1.120306057904818,0.5931174932895993,1.056140989644924,0.1883087650471029,0.8821152507525029,0.5129043675332231,0.4320574999956954,-0.02040489293564189,0.7270736664650206,799.0109890109891,786.5201465201466,792.967032967033,797.3992673992674,678.9377289377289,0.320129,-0.210632,0.953003,5.360870,-8.568420,-3.977661,1,1,1,1,1,80.000000
2021-11-25 14:37:40.815,,,,,,,,,,,,,,,,,,,,,,,,,,,,,,,,,,,,,,/muse/elements/blink
2021-11-25 14:37:41.517,1.380552693392356,1.733904879604183,1.524340859076492,0.8787116314990575,0.6308396647114527,0.7626607268061331,1.392636335612898,0.539527123265568,0.3836267098244356,0.5286519854648498,1.135583816675955,1.059721925385183,0.589415934680702,1.003295659722717,0.3171239982874351,0.7541713896345303,0.4302062022823209,0.4939701463049908,0.04197154473028424,0.7551420414344658,814.7252747252747,785.7142857142858,788.9377289377289,800.6227106227107,700.2930402930403,0.367676,-0.176697,0.930298,2.512207,-7.267456,-1.749573,1,1,1,1,1,80.000000
2021-11-25 14:37:42.451,,,,,,,,,,,,,,,,,,,,,,,,,,,,,,,,,,,,,,/muse/elements/blink
2021-11-25 14:37:42.511,1.380552693392356,1.491645755880771,1.340963479521434,0.8787116314990575,0.6308396647114527,0.9920076176183134,1.009045298456262,0.539527123265568,0.3836267098244356,1.005293181219666,1.049702876571107,1.059721925385183,0.589415934680702,1.059453775528233,0.2160372443864173,0.7541713896345303,0.4302062022823209,0.2469608422741237,-0.07016104737213491,0.7551420414344658,783.2967032967033,825.6043956043957,801.025641025641,772.014652014652,601.5750915750916,0.344971,-0.199036,0.946411,4.882355,-4.560852,-0.366364,1,1,1,1,1,80.000000
2021-11-25 14:37:42.718,,,,,,,,,,,,,,,,,,,,,,,,,,,,,,,,,,,,,,/muse/elements/blink
2021-11-25 14:37:43.049,,,,,,,,,,,,,,,,,,,,,,,,,,,,,,,,,,,,,,/muse/elements/blink
2021-11-25 14:37:43.510,1.380552693392356,1.410156574218306,1.218413859983777,0.8787116314990575,0.6308396647114527,0.9090678243572076,1.138872970256743,0.539527123265568,0.3836267098244356,0.8841156366163231,1.038029055021679,1.059721925385183,0.589415934680702,1.049986158162287,0.305043241649018,0.7541713896345303,0.4302062022823209,0.2931041869552747,-0.1923331911845435,0.7551420414344658,780.4761904761905,790.952380952381,797.3992673992674,812.3076923076924,705.934065934066,0.350281,-0.190796,0.905212,4.501038,-3.357086,-1.600037,1,2,1,1,2,80.000000
2021-11-25 14:37:44.511,1.3802630166443,1.663686909346479,0.9075142469750548,0.7449348915960277,0.7443101340168518,1.218854335281208,0.3840242620354049,0.5567022193522906,0.6666928251310342,1.038613026604236,0.5468749561499747,1.035418622232758,0.6279073443973471,0.9648579215285312,0.005237135429743777,0.8481685333942627,0.3051569086715987,0.5141395900609692,-0.1812592869216542,0.6738647044792767,786.9230769230769,786.5201465201466,792.5641025641025,782.4908424908425,794.5787545787546,0.372070,-0.193970,0.918701,3.835602,-5.525360,0.022430,1,1,1,1,1,80.000000
2021-11-25 14:37:45.060,,,,,,,,,,,,,,,,,,,,,,,,,,,,,,,,,,,,,,/muse/elements/blink
2021-11-25 14:37:45.512,1.14892293310841,1.489925501580586,1.167222080392376,0.6578404057140775,0.5321360950777307,1.063345489147312,0.7920868556993049,0.4507678859980038,0.8409429682404482,1.052972596002084,0.5469262912070764,1.053617688564074,0.6712650823429481,0.9613601132956776,0.1020609164089887,0.8429715966440293,0.3698038372913853,0.457678564664069,0.09433718017107852,0.6732195644232204,805.8608058608058,911.8315018315019,780.4761904761905,818.7545787545788,647.5091575091575,0.352722,-0.049194,0.948425,3.050537,-5.921631,7.387085,1,1,1,1,1,80.000000
2021-11-25 14:37:45.768,,,,,,,,,,,,,,,,,,,,,,,,,,,,,,,,,,,,,,/muse/elements/blink
2021-11-25 14:37:46.511,0.2303965233101491,0.8735234250780685,1.58486018281276,0.4840971813620885,-0.1403749231715488,0.6167362091408352,1.324115200699311,0.2618582634598708,0.7003900123543226,0.4994248996576081,0.9504713027585071,0.8112980609351428,0.7200045183069795,0.9528417565284301,0.2469853845045238,0.8587755495630143,0.4390583415004909,0.3504891799301937,0.1351775341190378,0.7074145471298635,791.7582417582418,763.956043956044,798.2051282051282,786.9230769230769,644.6886446886447,0.363831,-0.125183,0.939026,4.067383,-5.420685,-1.607513,1,1,1,1,1,80.000000
2021-11-25 14:37:46.892,,,,,,,,,,,,,,,,,,,,,,,,,,,,,,,,,,,,,,/muse/elements/blink
2021-11-25 14:37:47.518,0.2303965233101491,0.8735234250780685,1.335468502118342,0.4840971813620885,-0.1403749231715488,0.6167362091408352,1.165623797318435,0.2618582634598708,0.7003900123543226,0.4994248996576081,0.9494657581791951,0.8112980609351428,0.7200045183069795,0.9528417565284301,0.1205877927244124,0.8587755495630143,0.4390583415004909,0.3504891799301937,-0.2171050682163621,0.7074145471298635,826.007326007326,788.5347985347986,762.3443223443223,802.2344322344322,815.5311355311355,0.362000,-0.139587,0.930847,3.648682,-6.721649,-3.476715,1,1,1,1,1,80.000000
2021-11-25 14:37:48.409,,,,,,,,,,,,,,,,,,,,,,,,,,,,,,,,,,,,,,/muse/elements/blink
2021-11-25 14:37:48.511,1.473619813259005,1.760634329974978,1.300410813142043,0.626797894954551,1.015239297269054,1.111607265066527,0.9371483246108127,0.6821349993569343,0.6547510499969156,0.8456441142211175,0.6723065503038724,0.7236251769100117,0.4602901802151805,0.9040686059407518,-0.08174294468018486,0.4453127439795425,0.2778594529395343,0.1841772596184509,-0.2305123224266984,0.46933151481153,795.3846153846154,747.032967032967,792.5641025641025,810.2930402930403,656.7765567765568,0.371521,-0.156738,0.922668,3.394470,-6.123505,-1.727142,1,1,1,1,1,80.000000
2021-11-25 14:37:49.511,1.16357656424751,1.568159571277725,1.268995441410214,0.5825383668640507,0.7763872501335243,0.8597111405592852,1.075492069526493,0.4535904640585789,0.7959536459866488,0.7987511617543784,0.9226759929681581,0.7016799374221466,0.5047520228762852,0.8738316634186776,0.08041326011448828,0.5157148162447547,0.2820130706877207,0.2045229588407222,-0.3735072980477396,0.4103729737720342,799.8168498168499,753.8827838827839,799.8168498168499,794.5787545787546,734.9450549450549,0.374146,-0.160583,0.931580,4.314117,-4.418793,-1.114044,1,1,1,1,1,85.000000
2021-11-25 14:37:50.510,0.685450211233956,1.128125396749976,0.6281567591208062,0.2711976704638952,0.3042212407207291,0.5322675809648668,0.3686490200653685,-0.08074452042954219,0.8889757723054879,0.6525781204467508,0.4576260431990316,0.6977408493650191,0.487277784464589,0.8843679333611719,0.1115307513280509,0.6576190257520368,0.3792663750029337,0.3808669959314426,-0.3027403121469015,0.5391148662822544,627.3626373626374,856.2271062271062,846.1538461538462,634.6153846153846,699.4871794871796,0.374268,-0.166992,0.928101,4.411316,-5.166473,-1.816864,1,1,1,1,1,85.000000
2021-11-25 14:37:50.761,,,,,,,,,,,,,,,,,,,,,,,,,,,,,,,,,,,,,,/muse/elements/blink
2021-11-25 14:37:51.511,0.9779917780199783,1.414630786804171,1.372235218916435,0.3701737290729151,0.5754096945566526,0.7927479994700134,1.171601510046021,-0.007970106258003269,0.7939140859426846,0.6518673292536454,1.173806390946566,0.3435462117783138,0.5269038875883681,0.9833867779613357,0.2450689704176974,0.6909801407939711,0.3811235009692234,0.3824102358334304,-0.299323981893305,0.5519300779605975,788.9377289377289,806.6666666666667,794.5787545787546,790.1465201465202,705.5311355311355,0.378662,-0.169250,0.927856,4.673004,-4.927216,-1.293488,1,1,1,1,1,85.000000
2021-11-25 14:37:52.386,,,,,,,,,,,,,,,,,,,,,,,,,,,,,,,,,,,,,,/muse/elements/blink
2021-11-25 14:37:52.511,0.7329801213131837,0.6449465823884784,1.098934670730002,0.4358149591195423,0.04728788937611418,0.1521979744073414,1.000941981795754,0.2013396509630065,0.5076193405242889,0.1538430064480789,1.161798029269869,0.7690934330143779,0.2875055888004036,0.81044262398191,0.07830623359609284,0.7264229226229667,0.1570462613699284,0.2035127207508766,-0.4282622721595434,0.4739872587817383,807.4725274725275,772.4175824175825,799.4139194139194,795.3846153846154,704.7252747252747,0.350342,-0.170837,0.946289,3.895416,-5.173950,-1.742096,1,1,1,1,1,85.000000
2021-11-25 14:37:52.802,,,,,,,,,,,,,,,,,,,,,,,,,,,,,,,,,,,,,,/muse/elements/blink
2021-11-25 14:37:53.519,0.780126699669725,0.7821606649269651,1.339062935545228,0.4272249012751614,0.05405674863112028,0.1691892280714997,1.193837609927139,0.2304982802609017,0.5028665834493227,0.1538430064480789,0.9052855887646489,0.7690934330143779,0.2866016614928499,0.8192139419066975,-0.04701086111704313,0.7489958339814231,0.2072336462865839,0.1758754769241314,-0.4822266016017311,0.479683552779304,798.2051282051282,787.7289377289378,795.7875457875458,787.7289377289378,686.1904761904763,0.370239,-0.169739,0.943420,5.211334,-5.824432,-2.160797,1,1,1,1,1,85.000000
2021-11-25 14:37:54.212,,,,,,,,,,,,,,,,,,,,,,,,,,,,,,,,,,,,,,/muse/elements/blink
2021-11-25 14:37:54.511,0.780126699669725,1.258218443354725,1.345832194038475,0.4272249012751614,0.05405674863112028,0.7360471118697468,1.037394386367853,0.2304982802609017,0.5028665834493227,0.7671939746847497,0.890922417578466,0.7690934330143779,0.2866016614928499,0.8696239931729296,0.09819203669432694,0.7489958339814231,0.2072336462865839,0.1413804856008431,-0.4560937968011157,0.479683552779304,780.0732600732601,782.893772893773,803.8461538461539,782.4908424908425,726.8864468864469,0.357422,-0.180908,0.922546,4.321594,-2.497253,-0.321503,1,1,1,1,1,85.000000
2021-11-25 14:37:55.514,0.7322611554618932,0.5114649355782396,1.078998631759527,0.6958680490401452,0.6064605746716289,0.5623319697904351,0.7946792842269187,0.5694718392358895,0.7624721493915627,0.5191779274913927,0.8272810393871771,0.5430970898226561,0.6771197685864833,0.9143135242122927,-0.06351730844955857,0.59943182698152,0.35193121326127,0.05063124661103366,-0.2479791361539848,0.691065303110325,790.952380952381,796.996336996337,792.967032967033,807.0695970695971,674.9084249084249,0.346375,-0.200195,0.947083,4.598236,-8.202057,-1.413116,1,1,1,1,1,85.000000
2021-11-25 14:37:56.044,,,,,,,,,,,,,,,,,,,,,,,,,,,,,,,,,,,,,,/muse/elements/blink
2021-11-25 14:37:56.510,1.218474388933959,0.636152022107216,0.7811332187269154,1.108174984879226,0.5830474740139261,0.430440742637183,1.034273221216107,0.6188450763895317,0.7689411650324869,0.5700619214088301,0.8611915934160137,0.7049819367836094,0.6451035939103396,0.8565174150975844,-0.00519405090004849,0.7497581315781594,0.3831193483538088,0.1882183599339906,-0.208665968512167,0.7128489935716488,795.3846153846154,777.6556776556777,796.1904761904763,796.5934065934066,722.8571428571429,0.382080,-0.196655,0.893066,3.962708,-2.228088,-1.652374,1,1,1,1,1,85.000000
2021-11-25 14:37:57.510,1.652826365123596,1.129555132902309,1.108929576717222,1.365728698264302,0.8371318029917894,0.4940027559473251,1.310773131450362,0.6013370101680119,0.5462334264108265,0.3783746935387525,0.977190353507488,0.1974876445049487,0.8071130368162239,0.831950520139351,0.0723186642249697,0.911728557148637,0.375277701916615,0.299868633852336,-0.2913672578998512,0.7757562748208551,778.0586080586081,811.9047619047619,789.3406593406594,770.8058608058608,680.5494505494506,0.397522,-0.194031,0.915771,5.420685,-4.022522,-1.547699,1,1,1,1,1,85.000000
2021-11-25 14:37:58.286,,,,,,,,,,,,,,,,,,,,,,,,,,,,,,,,,,,,,,/muse/elements/blink
2021-11-25 14:37:58.519,1.627205679842389,1.614480921039791,1.04321221420933,1.208196775460316,0.9847705867204708,1.023685985361594,0.7397610562061038,0.4841154762033386,0.6012833638341715,0.8026662685701587,0.9074957854408863,0.4504723929539779,0.6909922981379261,0.9569444090499634,0.0913510557680112,0.788388613934957,0.4379371014769959,0.2992744919565412,-0.4107575602561301,0.6998872997862101,793.3699633699634,790.952380952381,802.6373626373627,799.0109890109891,749.4505494505495,0.380981,-0.186462,0.927246,4.859924,-3.521576,-0.127106,1,1,1,1,1,85.000000
2021-11-25 14:37:59.521,0.3911839382545049,0.2157624398788615,1.113890243993815,0.4912670076719673,0.4018326401378479,0.3050249427387042,0.9208871591152699,0.3919841514552068,0.2112107816865952,0.1597995216533343,0.9492098875149951,0.6199224546917788,0.5736744808052839,0.8945451209157526,0.1134286806000611,0.8347486888179871,0.3494025440298008,0.3146850156565625,-0.3706641708220216,0.6057545452456742,838.0952380952381,760.3296703296703,783.6996336996338,846.959706959707,806.2637362637363,0.398315,-0.188171,0.919067,4.658051,-4.097290,-2.564545,1,1,1,1,1,80.000000
2021-11-25 14:37:59.600,,,,,,,,,,,,,,,,,,,,,,,,,,,,,,,,,,,,,,/muse/elements/blink
2021-11-25 14:38:00.108,,,,,,,,,,,,,,,,,,,,,,,,,,,,,,,,,,,,,,/muse/elements/blink
2021-11-25 14:38:00.510,0.3911839382545049,1.395915718361949,0.9158295962064092,0.4912670076719673,0.4018326401378479,1.135424518566284,0.7040700081655987,0.3919841514552068,0.2112107816865952,0.9492617819782543,0.6993869088628228,0.6199224546917788,0.5736744808052839,0.9011589037043376,0.07567437718894213,0.8347486888179871,0.3494025440298008,0.2853006563232132,-0.2465034802040046,0.6057545452456742,787.3260073260074,813.5164835164835,799.8168498168499,777.6556776556777,771.2087912087912,0.382385,-0.198425,0.916260,3.641205,-4.381409,-2.781372,1,1,1,1,1,80.000000
2021-11-25 14:38:01.511,1.809516015098088,1.2169377955865,0.7112090984854283,1.670490695991832,1.424341986026618,0.8940386535789907,0.508139634986051,1.257819413571673,1.254044176325179,0.9230306406435509,0.6427145858239578,1.197130734159615,0.7047589902624838,0.8714309634432734,0.186384357936701,0.7543218932095591,0.3048427358204849,0.2943628029014386,-0.1826879145495251,0.467736823646527,828.021978021978,752.2710622710623,767.1794871794872,830.4395604395604,892.893772893773,0.389587,-0.189270,0.916687,4.015045,-6.497345,-2.549591,1,1,1,1,1,80.000000
2021-11-25 14:38:01.614,,,,,,,,,,,,,,,,,,,,,,,,,,,,,,,,,,,,,,/muse/elements/blink
2021-11-25 14:38:01.791,,,,,,,,,,,,,,,,,,,,,,,,,,,,,,,,,,,,,,/muse/elements/blink
2021-11-25 14:38:02.510,1.850697631526978,0.8466059349341095,0.6761521928148756,1.755548650694231,1.468187145291482,0.5716273943307267,0.5337109695709645,1.342333190209042,1.254044176325179,0.5845759694451104,0.406770515194039,1.197130734159615,0.6997597212246573,0.786516317608921,0.1331096507936579,0.747272542774983,0.3061698254714904,0.2809420938992908,-0.1383636843051972,0.529735281368619,803.8461538461539,794.1758241758242,794.1758241758242,786.1172161172161,745.8241758241759,0.390747,-0.196472,0.914490,4.785156,-3.760834,-1.966400,1,1,1,1,1,80.000000
2021-11-25 14:38:03.510,0.80164770665607,0.6473793216096694,0.220815054484365,0.5057924920778962,0.3919573650119183,0.2400210995414021,0.04890531793948058,0.3707310167677365,0.5379859291093111,0.2233254782182724,0.1565101177143184,0.3206283840479506,0.6739240799427439,0.8787890334918926,0.1451280637883224,0.810731647587778,0.3708604928469598,0.1588775991579848,-0.1012911756909617,0.5146175469896808,806.2637362637363,814.7252747252747,786.5201465201466,791.3553113553114,794.5787545787546,0.394592,-0.189392,0.920471,5.211334,-4.702911,-1.330872,1,1,1,1,1,80.000000
2021-11-25 14:38:03.952,,,,,,,,,,,,,,,,,,,,,,,,,,,,,,,,,,,,,,/muse/elements/blink
2021-11-25 14:38:04.510,0.7878635551367309,1.269059729793283,1.1630703290186,0.4564214237285327,0.4373974798008861,1.118883602448298,1.016797432068903,0.5210158979876552,0.5621390053235383,1.158923820719988,1.017773792267313,0.4415645762319402,0.5903847277233842,0.8918497148833232,0.1743171075182686,0.7854304520717251,0.3169658524995406,0.2631599801946998,-0.2031326759860775,0.5627946820386807,793.7728937728938,780.4761904761905,802.6373626373627,793.3699633699634,722.0512820512821,0.396057,-0.189392,0.923950,5.345917,-4.605713,-0.710297,1,1,1,1,1,80.000000
2021-11-25 14:38:05.516,1.496010499446828,1.574777712949453,1.321429761715591,0.6029216597939863,0.9866460867996283,1.306552012444728,1.072353032504286,0.1522033112451576,0.7516372196902104,1.165164124433328,1.017773792267313,0.2314511081388934,0.44528311651872,0.8830989037092773,0.1182161215846932,0.6183727015596845,0.2386788797345594,0.3412268378786852,-0.3490582841570761,0.6951908967637486,843.3333333333334,746.6300366300367,771.2087912087912,848.1684981684982,708.3516483516484,0.392151,-0.185425,0.912842,5.667419,-4.717865,-0.859833,1,1,1,1,1,80.000000
2021-11-25 14:38:05.597,,,,,,,,,,,,,,,,,,,,,,,,,,,,,,,,,,,,,,/muse/elements/blink
2021-11-25 14:38:06.514,1.590807542627778,1.703578590497629,1.380243875338929,0.7066531630773573,1.094219543745174,1.298038564682809,1.068561815186363,0.2397426622253601,0.7516372196902104,0.9677505301156575,0.9228583652631573,0.1454577072393372,0.4760566234607536,0.8451541111875517,0.1212496027988928,0.6514362437637157,0.2495077410029816,0.2735411106404393,-0.3692662381836266,0.6859681549984443,698.2783882783883,870.3296703296703,826.8131868131868,687.3992673992674,707.1428571428571,0.388794,-0.193054,0.914551,4.486084,-4.957123,-2.243042,1,1,1,1,1,80.000000
2021-11-25 14:38:06.662,,,,,,,,,,,,,,,,,,,,,,,,,,,,,,,,,,,,,,/muse/elements/blink
2021-11-25 14:38:07.427,,,,,,,,,,,,,,,,,,,,,,,,,,,,,,,,,,,,,,/muse/elements/blink
2021-11-25 14:38:07.511,1.590807542627778,1.499789682688063,1.398774696473033,0.7066531630773573,1.094219543745174,1.106253067817383,1.148337923394545,0.2397426622253601,0.7516372196902104,0.8780603233091658,0.9943573394386488,0.1454577072393372,0.4760566234607536,0.8245868711298415,0.09499213065887821,0.6514362437637157,0.2495077410029816,0.2728652438619459,-0.2372850566572448,0.6859681549984443,812.7106227106227,774.4322344322345,790.952380952381,827.6190476190476,748.6446886446887,0.383179,-0.178894,0.927673,4.314117,-3.618774,-1.472931,1,1,1,1,1,80.000000
2021-11-25 14:38:08.510,1.590807542627778,1.499789682688063,1.550141307463316,0.7066531630773573,1.094219543745174,1.106253067817383,1.356214487366024,0.2397426622253601,0.7516372196902104,0.8780603233091658,1.098750609493278,0.1454577072393372,0.4760566234607536,0.8245868711298415,0.1337535081647784,0.6514362437637157,0.2495077410029816,0.2728652438619459,-0.3192143217833197,0.6859681549984443,776.4468864468864,780.8791208791209,792.967032967033,786.9230769230769,645.8974358974359,0.385498,-0.181641,0.916870,5.405731,-3.663635,-1.757050,1,2,1,1,2,80.000000
2021-11-25 14:38:09.020,,,,,,,,,,,,,,,,,,,,,,,,,,,,,,,,,,,,,,/muse/elements/blink
2021-11-25 14:38:09.511,1.431162431170135,1.60749976929016,1.295657051686821,0.4064950746997998,1.151081975586305,1.308301623123048,1.023231589488106,0.4869529919721206,0.98327205200537,0.9787267089209687,0.8679984942037441,0.8407658021417882,0.4053348207051862,0.8800158823094166,0.1082606586739684,0.623943609953577,0.4357565674523614,0.205919657447707,-0.4837540213925006,0.5390375670342598,787.3260073260074,796.5934065934066,796.1904761904763,801.025641025641,618.4981684981685,0.385071,-0.182007,0.925598,5.734711,-3.820648,-1.143951,1,1,1,1,1,85.000000
2021-11-25 14:38:10.510,0.3669142049175261,0.3397548484987796,1.102733869166477,0.122102478740822,0.6390740061704432,0.1481941812516476,0.967758647793316,0.5424804374388591,1.033790379741509,0.4228121038404245,0.8432777929866659,0.9949064494372515,0.8818606132524553,0.8313424653061308,0.0779776819771285,0.7814759112596055,0.3032972497670079,0.310689681816236,-0.4064011644772255,0.7738178688978457,844.1391941391942,856.6300366300367,774.4322344322345,805.4578754578755,943.6630036630037,0.392700,-0.195251,0.911011,3.289795,-4.942169,-3.058014,1,1,1,1,1,85.000000
2021-11-25 14:38:11.476,,,,,,,,,,,,,,,,,,,,,,,,,,,,,,,,,,,,,,/muse/elements/blink
2021-11-25 14:38:11.510,1.351604756179007,1.508994075086544,0.8817111199951375,0.8337691556080191,0.757828412488425,1.026595174311187,0.5439000343760316,0.4516809661011164,1.032048901709324,1.089389659931812,0.6890937411310055,1.036128486668499,0.6932847517939713,0.8610273120600468,0.03136783212136065,0.8472657273321711,0.2655269480873211,0.3044970471467005,-0.4226960857743938,0.7769944816203146,809.4871794871796,788.1318681318681,797.8021978021978,827.6190476190476,709.1575091575091,0.364868,-0.177429,0.921875,5.458069,-1.480408,-0.052338,1,1,1,1,1,85.000000
2021-11-25 14:38:12.510,1.491450257533633,1.527679275077915,1.298768474218133,0.9073213433328308,0.817591574790746,1.294173258025602,1.153975628298708,0.3559086125316098,0.5674396981012556,1.041382250189048,1.066176329163059,0.7385119158677412,0.4779992440866059,0.8394968789562236,0.1830071003847553,0.8264070804912192,0.3013037379778125,0.3716518437807148,-0.3335188691348185,0.4741758140263723,803.040293040293,790.1465201465202,783.6996336996338,809.8901098901099,734.9450549450549,0.358582,-0.190796,0.918030,5.301056,-1.749573,-3.551483,1,1,1,1,1,85.000000
2021-11-25 14:38:12.765,,,,,,,,,,,,,,,,,,,,,,,,,,,,,,,,,,,,,,/muse/elements/blink
2021-11-25 14:38:13.510,1.182872532000186,0.7984275493988585,0.7982334227930853,0.6053843085630194,0.5890171009072784,0.602795977790225,0.6353221309746915,0.2049126021066119,0.4566040080247051,0.4014846570165468,0.6731910273444933,0.6680492411147274,0.4968558506643267,0.7645453927144504,0.02932504943762036,0.8013314238722195,0.3083125578328353,0.3838289915812275,-0.3086585702614537,0.4686161459420498,804.2490842490843,791.7582417582418,795.3846153846154,810.2930402930403,803.040293040293,0.195496,0.007202,0.998962,15.409698,-1.786957,-15.028381,1,1,1,1,1,85.000000
2021-11-25 14:38:14.511,1.009735397600386,0.4492538674344692,0.05715030968483192,0.8499417856206419,0.4282965309517773,0.8320745217062802,0.2366674802204386,0.4405890552718532,0.6591298578870227,0.7434495291997504,0.2886276219471764,1.118511578405839,0.7090768607962259,0.8853467275910045,-0.2040974660359937,0.974698665097079,0.2517950129754486,-0.06191806308217922,-0.3181668170596199,0.4514255691716495,803.040293040293,778.0586080586081,800.6227106227107,803.8461538461539,665.6410256410256,0.230347,0.105957,0.970337,3.686066,-10.063782,-1.061707,1,1,1,1,1,85.000000
2021-11-25 14:38:15.442,,,,,,,,,,,,,,,,,,,,,,,,,,,,,,,,,,,,,,/muse/elements/blink
2021-11-25 14:38:15.518,0.9808803579275683,0.3043706238804796,0.1536908279498162,0.6455585522436252,0.6739328722401632,0.5214688994948287,0.2112619468771937,0.5708875555135675,0.9491190758335589,0.7576890624249432,0.4373757058960018,1.350524354351754,0.6818839087540078,0.8464131402105047,-0.132080431240464,1.024316800103999,0.3535812723384937,-0.04845573521176313,-0.273155935437219,0.5189326567153878,799.4139194139194,796.5934065934066,788.1318681318681,803.8461538461539,703.1135531135532,0.307739,0.075500,0.975891,5.899200,-9.174042,1.435547,1,1,1,1,1,85.000000
2021-11-25 14:38:16.510,0.8562567682043137,0.6147224516139256,1.27168540126946,0.485326096243214,0.8896380335912647,0.2982512860495383,1.046950418669227,0.5743893008963873,0.94647016383605,0.5769880999465292,1.191105402494942,1.194957112831266,0.6870581476142129,0.8033665503784556,0.09711148505915754,1.117773859148294,0.5376151875909465,-0.004821240417533968,-0.2877474520505896,0.5559142456567738,804.2490842490843,784.9084249084249,783.2967032967033,796.996336996337,748.6446886446887,0.316528,0.077026,0.968689,3.730927,-5.966492,-3.349609,1,1,1,1,1,85.000000
2021-11-25 14:38:17.181,,,,,,,,,,,,,,,,,,,,,,,,,,,,,,,,,,,,,,/muse/elements/blink
2021-11-25 14:38:17.510,1.005055970305613,1.517900716795666,1.250637326524912,0.4694500307427482,0.6776775354982427,1.005997556519283,1.012041006115532,0.2394749835327027,0.9423778830097028,1.012643560549715,1.237094658140432,0.9633901640040529,0.571212375787172,0.8048199686206504,0.1765452244998162,0.6415444248576452,0.4794716944407432,-0.02712570703876505,-0.2976136545680095,0.489645045079321,798.2051282051282,786.5201465201466,794.5787545787546,806.2637362637363,669.2673992673992,0.320435,0.073486,0.975220,4.650574,-6.228180,-2.018738,1,1,1,1,1,85.000000
2021-11-25 14:38:17.957,,,,,,,,,,,,,,,,,,,,,,,,,,,,,,,,,,,,,,/muse/elements/blink
2021-11-25 14:38:18.509,1.135058700792449,1.756637784700715,1.727329106276181,0.4219842657858895,0.8227178900799261,1.254594247662859,1.541487972613483,0.2540500936737957,0.9061849273146103,1.012627406919787,1.25094497745142,0.457584523615137,0.5524292411529569,0.8395064682668432,0.3856416753476479,0.5615111792052128,0.4387419678807433,-0.004337920413120705,-0.2718139478690713,0.5525894896722705,803.040293040293,794.981684981685,801.4285714285714,780.4761904761905,721.6483516483516,0.325989,0.061096,0.957336,4.979553,-3.775787,-0.306549,1,1,1,1,1,85.000000
2021-11-25 14:38:19.510,0.6000996245538263,1.060306241744188,1.411348330776241,0.4572035403758024,0.2980254432527001,0.6712397964768028,1.167150298730306,0.3742995227611035,0.5229017081000005,0.6860472258247248,1.081542366629283,0.5645474589393735,0.4236591805793532,0.8426072526538541,0.2376868786284504,0.6196944514073954,0.4439801815160813,0.1792758793482724,-0.2545160083142281,0.3072761314383187,819.96336996337,786.5201465201466,776.0439560439561,819.96336996337,712.7838827838829,0.337280,0.051392,0.944641,4.142151,-6.459961,-4.187012,1,1,1,1,1,85.000000
2021-11-25 14:38:19.695,,,,,,,,,,,,,,,,,,,,,,,,,,,,,,,,,,,,,,/muse/elements/blink
2021-11-25 14:38:20.224,,,,,,,,,,,,,,,,,,,,,,,,,,,,,,,,,,,,,,/muse/elements/blink
2021-11-25 14:38:20.493,,,,,,,,,,,,,,,,,,,,,,,,,,,,,,,,,,,,,,/muse/elements/blink
2021-11-25 14:38:20.509,0.6453108076173099,1.208915652467041,1.2498342145165,0.4064813189969412,0.340155948585938,0.8200742228772605,1.120337581778888,0.3642073681582167,0.5228742052341201,0.6860472258247248,0.8116175899012295,0.5557022817475795,0.4111478479943568,0.8066056314805305,-0.09729121604127912,0.6211629917849196,0.4085897005595057,0.1343010872136153,-0.5199209158089553,0.3299312192885305,841.3186813186813,768.3882783882784,794.1758241758242,850.989010989011,702.3076923076924,0.343323,0.038452,0.949036,2.467346,-5.734711,-3.431854,1,1,1,1,1,85.000000
2021-11-25 14:38:21.213,,,,,,,,,,,,,,,,,,,,,,,,,,,,,,,,,,,,,,/muse/elements/blink
2021-11-25 14:38:21.510,0.7252530150960839,1.208915652467041,1.379537015351356,0.3634684059068525,0.4001213989761979,0.8200742228772605,1.22023046378737,0.3202618947127179,0.5228742052341201,0.6860472258247248,0.8068907516551435,0.5557022817475795,0.4080101330312906,0.8066056314805305,-0.02375340841233428,0.6319164818313233,0.3715781486695252,0.1343010872136153,-0.5229307794180722,0.3542766279017825,782.0879120879121,796.5934065934066,795.7875457875458,804.6520146520147,720.8424908424909,0.338135,0.045837,0.955139,4.239349,-4.680481,-1.614990,1,1,4,1,1,85.000000
2021-11-25 14:38:22.517,0.4870668105265101,0.5126434814319749,1.326242924163541,0.6956632494946966,-0.01206520323214367,-0.01771694704113152,1.107684507097559,0.3154359197077248,0.4618599591577195,0.05344388073855586,0.745745630375812,0.288726377022095,0.5356092385971127,0.656852329528135,-0.1669170362510023,0.6244672522866768,0.3697635755496225,-0.09403056950234584,-0.3035048016097809,0.4602549944009269,796.5934065934066,770.4029304029305,791.3553113553114,789.7435897435897,908.6080586080586,0.334839,0.043701,0.957397,4.957123,-4.717865,-0.747681,1,2,1,1,2,85.000000
2021-11-25 14:38:22.948,,,,,,,,,,,,,,,,,,,,,,,,,,,,,,,,,,,,,,/muse/elements/blink
2021-11-25 14:38:23.510,0.5235992516505655,0.5247321801738671,1.064583561295945,0.6671410745326721,0.0491020478727009,0.1523358203630288,0.7321040399651021,0.2614449196162393,0.5434450529744859,0.3251480774970035,0.361586884075801,0.6844295652767992,0.5026143529315361,0.7354167818683292,0.1010729232425252,0.6417072269144581,0.3023086222681238,-0.02884236903766529,-0.2133345965197,0.4285454589299131,803.4432234432235,807.8754578754579,784.1025641025641,794.5787545787546,615.2747252747253,0.347412,0.039062,0.956604,4.164581,-6.332855,-0.732727,1,1,1,1,1,85.000000
2021-11-25 14:38:24.510,1.071580423824995,1.474374237414849,1.204878794662468,0.4186239103683279,0.9596702998741473,0.9940181661390909,0.8636177358495145,0.3400650066896486,1.016656081980772,1.108552186447483,0.4565030879314658,0.6722030838868189,0.645958564082204,0.8163818302934333,0.1625565854472293,0.3189084435852522,0.300716752945651,0.1531838229838554,-0.3828378190738509,0.3259071554020664,775.6410256410256,796.996336996337,799.4139194139194,770.4029304029305,751.0622710622711,0.352905,0.035645,0.946533,3.648682,-6.587067,-4.261780,1,1,1,1,1,85.000000
2021-11-25 14:38:25.202,,,,,,,,,,,,,,,,,,,,,,,,,,,,,,,,,,,,,,/muse/elements/blink
2021-11-25 14:38:25.510,0.8342175313765008,0.8729883112012715,0.9474480927612235,0.4493723342219187,0.9279712474024645,0.5632270280502804,0.7536672703257727,0.5444725093054777,1.036996859189532,0.8312219280021719,0.6260428643645688,0.7377508615259026,0.6201128573674495,0.6970630612735911,0.00326927478727929,0.5416891369042197,0.3095154716882896,0.2516810796344996,-0.4323124895408471,0.4373960232084875,783.2967032967033,771.6117216117216,807.8754578754579,799.4139194139194,693.8461538461538,0.334290,0.026794,0.962158,3.282318,-5.547791,-2.886047,1,1,1,1,1,85.000000
2021-11-25 14:38:26.510,0.3579169853440436,0.6872951762924486,1.253762154047723,0.9713888533678485,0.5451424535467647,0.5160920100239218,1.013342822955892,0.5812279845524706,1.011253067639677,0.6037884704073887,0.6265077582291076,0.8780517229355553,0.6297532200242796,0.6532017612104911,-0.01657922479120211,0.4647784235497258,0.2043838939056047,0.2643199191409337,-0.3583988222491208,0.2948377474998025,804.6520146520147,775.2380952380953,794.1758241758242,817.1428571428571,731.7216117216118,0.319214,-0.012207,0.921204,4.628143,3.080444,-4.755249,1,1,1,1,1,85.000000
2021-11-25 14:38:27.510,0.9957425483606598,0.9651725958345548,0.5429769695107844,1.115209506166729,0.6830803782734332,0.7050067906373356,0.2397280373783877,0.4155582246744854,0.986111318914344,1.037819133747319,0.4098823586887088,0.9561898861656846,0.5885998237928504,0.7323495197968577,0.06811012056094226,0.6834648521096428,0.168371819345628,0.3865891390696258,-0.2678452638919339,0.572292072969001,819.96336996337,775.2380952380953,788.9377289377289,816.3369963369963,676.9230769230769,0.345093,-0.003174,0.952881,4.314117,-7.588959,-4.867401,1,1,1,1,1,85.000000
2021-11-25 14:38:27.533,,,,,,,,,,,,,,,,,,,,,,,,,,,,,,,,,,,,,,/muse/elements/blink
2021-11-25 14:38:28.519,1.22281335840593,1.29058587152014,1.109107590221413,1.284768156504775,0.6627826381664987,0.9589420487297002,0.9642940010988258,0.6065489171695976,0.8121509253958062,1.037522438358763,0.8061823472035874,0.7928596271719031,0.5710636220894169,0.8302135755810907,0.1925436988458447,0.7081104777201909,0.2991367522892547,0.0941435216790073,-0.3129531915768821,0.6134168142355041,811.0989010989011,793.3699633699634,798.2051282051282,809.4871794871796,808.6813186813187,0.363220,-0.004028,0.876526,1.413116,-6.287994,-9.151611,1,1,1,1,1,85.000000
2021-11-25 14:38:29.521,1.169720933416416,1.155948831208059,0.607783962942155,1.117588594736379,0.378716745089736,0.2995109543762051,0.4475446333411253,0.8661619159607453,0.9598580506205284,0.2694862251539711,0.7044564399624967,1.471018941898067,0.6862350849935884,0.6517552388485114,0.09862100832596081,1.314279398707418,0.500259124196322,0.29536263907691,-0.2889990683773934,0.7200878237963383,785.7142857142858,800.2197802197802,784.1025641025641,780.0732600732601,732.5274725274726,0.292786,0.030334,0.982666,7.357178,-11.738586,10.303040,1,1,1,1,1,85.000000
2021-11-25 14:38:30.510,1.218850207406347,1.478150195730915,0.6141454345368407,1.304346713934931,0.5625401387301953,0.9433908997442068,0.4066632424824899,1.010119357409989,0.9159805067551375,0.9972837806515206,0.4418301015067435,1.475276785804159,0.7003429061592443,0.7227060541591638,-0.02124472927716676,1.238605649742348,0.5494976115294231,0.282959690619172,-0.2532269532632524,0.8379387584679364,786.1172161172161,788.5347985347986,806.6666666666667,778.8644688644689,671.2820512820513,0.408142,0.029907,0.962280,2.878571,-10.160980,1.248627,1,1,1,1,1,85.000000
2021-11-25 14:38:30.957,,,,,,,,,,,,,,,,,,,,,,,,,,,,,,,,,,,,,,/muse/elements/blink
2021-11-25 14:38:31.517,0.777678916565412,1.598749277364838,1.313427452110065,0.913912541973694,0.5033995704524225,1.341530687422193,1.077746628254112,0.9133444859300441,0.8063816815186696,1.068422469696679,1.136419408646021,0.9278684651026186,0.6672150627940211,0.8356142501997256,0.1168647010790215,0.8840369146427315,0.5958586853177761,-0.1989515471565094,-0.207565240254035,0.6354539550529156,784.9084249084249,780.8791208791209,791.3553113553114,776.4468864468864,896.5201465201466,0.384033,0.036743,0.929382,5.674896,-4.149628,0.859833,1,1,1,1,1,85.000000
2021-11-25 14:38:32.419,,,,,,,,,,,,,,,,,,,,,,,,,,,,,,,,,,,,,,/muse/elements/blink
2021-11-25 14:38:32.518,0.9554565532066548,1.432549627681578,1.45191813142307,0.9671112755885685,0.600784731779085,1.048911110725023,1.166304718319543,0.5174997006910727,0.7507251337395641,0.9081226927688308,1.158643701284913,0.6248240680514873,0.6881540206386202,0.789186439153404,0.1736054692087847,0.7816617429410228,0.4798025868594294,0.2839405511693502,-0.1253655565151347,0.2517707801823684,794.5787545787546,799.0109890109891,803.4432234432235,804.6520146520147,769.5970695970697,0.403748,0.027954,0.918701,4.687958,-4.523468,0.500946,1,1,1,1,1,85.000000
2021-11-25 14:38:33.125,,,,,,,,,,,,,,,,,,,,,,,,,,,,,,,,,,,,,,/muse/elements/blink
2021-11-25 14:38:33.512,0.9554565532066548,1.432549627681578,1.656753507773399,0.9671112755885685,0.600784731779085,1.048911110725023,1.397853197447354,0.5174997006910727,0.7507251337395641,0.9081226927688308,1.198322425866482,0.6248240680514873,0.6881540206386202,0.789186439153404,0.2550178923732998,0.7816617429410228,0.4798025868594294,0.2839405511693502,-0.1483172498382125,0.2517707801823684,786.5201465201466,799.0109890109891,794.1758241758242,795.3846153846154,762.3443223443223,0.432678,0.029968,0.922363,6.796417,-5.727234,-3.312225,1,1,1,1,1,85.000000
2021-11-25 14:38:34.509,1.149520195221361,1.782992555886437,1.448853022590892,0.6511103447901653,0.7277959453659959,1.229393118496378,1.144447316688488,0.2097378006556491,0.5775870264983665,1.058592838389028,1.149080716626929,0.5190156169786906,0.5824653868604546,0.5551783072459904,0.2240445179218224,0.451783715289616,0.3491492618240601,0.02094511369954416,-0.3725726961701935,0.3666390285903596,799.0109890109891,799.0109890109891,790.1465201465202,808.2783882783883,758.3150183150184,0.431519,0.023193,0.929260,3.611298,-7.775879,-2.945862,1,1,1,1,1,85.000000
2021-11-25 14:38:34.842,,,,,,,,,,,,,,,,,,,,,,,,,,,,,,,,,,,,,,/muse/elements/blink
2021-11-25 14:38:35.521,1.068902972666538,1.584328322368716,1.153880469358274,0.6828887484425827,0.6479928983201271,1.076993514414577,0.8462859657039373,0.2347779766325911,0.6051242117491655,1.066301625406185,0.7374599505565022,0.5451562635637405,0.6901719877650488,0.532866539145144,0.02633509333846203,0.5116587874485249,0.3895718645229999,0.05098924596480667,-0.3513441962515567,0.336804763466215,784.1025641025641,779.6703296703297,801.8315018315019,799.8168498168499,693.040293040293,0.424377,0.010254,0.942627,3.977661,-7.446899,-3.200073,1,1,1,1,1,85.000000
2021-11-25 14:38:36.510,1.136106899549743,1.825419187449929,1.191053295624428,0.57597413337008,1.004115752875199,1.461771188152249,0.8475939785020872,0.8092496403652207,0.3053144709997176,1.125713346090085,0.7369430408372759,0.6857345733675951,0.5395812621259003,0.7100405731437638,-0.1237297399861115,0.4546246367374858,0.2622014045784699,0.1638366353219899,-0.3402280942173366,0.1828509117118483,754.6886446886447,831.2454212454213,793.7728937728938,755.0915750915751,686.5934065934066,0.467712,0.020874,0.920471,4.934692,-4.665527,-1.278534,1,1,1,1,1,85.000000
2021-11-25 14:38:36.683,,,,,,,,,,,,,,,,,,,,,,,,,,,,,,,,,,,,,,/muse/elements/blink
2021-11-25 14:38:37.512,1.19328888270985,1.920188365201549,1.384124406079481,0.6546709936339123,1.065580450185374,1.534125594202322,1.114026548359463,0.8959309875156689,0.25714931069993,1.125713346090085,1.077351758601377,0.6509787616001669,0.5086401977456295,0.7118247180971673,0.1676060495579663,0.4808050265805133,0.2653364193735753,0.2419012018308553,-0.2932354660979482,0.1795423212608464,819.96336996337,849.7802197802198,770,800.6227106227107,825.6043956043957,0.453003,0.012512,0.907288,4.575806,-3.992615,-2.661743,1,1,1,1,1,85.000000
2021-11-25 14:38:38.510,0.9372153315621397,1.681601270474823,1.290545594967541,0.481520742893963,0.1701095711135912,1.226221394983501,0.9358753074885422,0.3533723161477734,0.4880079063653371,1.083329620382426,1.040237676571583,0.61047265505824,0.4749343810502399,0.8681955920698475,0.003948549152161123,0.373880022625795,-0.007259361688936461,0.1775685938762779,-0.3859237774887118,-0.02960652825432733,828.8278388278388,776.4468864468864,766.7765567765568,824.7985347985348,645.8974358974359,0.445557,0.015808,0.907104,4.934692,-4.830017,-0.687866,1,1,1,1,1,85.000000
2021-11-25 14:38:38.672,,,,,,,,,,,,,,,,,,,,,,,,,,,,,,,,,,,,,,/muse/elements/blink
2021-11-25 14:38:39.510,1.008980629388096,1.738075964296037,1.167545301422172,0.5075748541824403,0.1954556159127361,1.147551689732419,0.8979071196295123,0.3342928487230434,0.4763862013577931,0.9847352635821639,1.057754472847507,0.5762664758147689,0.505967879167026,0.9055360898984391,0.2277558871800664,0.2849305543788614,0.08672828979517858,0.1278457352035872,-0.359400187608199,0.005696129702962681,796.996336996337,803.040293040293,793.3699633699634,789.3406593406594,754.2857142857143,0.441101,0.007446,0.911011,3.663635,-5.106659,-1.772003,1,1,1,1,1,85.000000
2021-11-25 14:38:40.510,0.6326083835389158,1.240789495397752,1.030451212665936,0.2991493375364843,0.4322446307827491,0.8416974345945651,0.7414079610911083,0.1596262690022768,0.7062971963832554,0.9816095256368502,1.053327491696716,0.5948678966307713,0.4024281179886796,0.7596593604762603,0.130645757327019,0.7436682085385548,0.1949818779154,-0.06406947305364602,-0.1752000641155476,0.2529169211509272,831.6483516483516,763.956043956044,784.9084249084249,801.025641025641,724.4688644688645,0.302917,0.050110,0.965210,-2.198181,0.568237,-1.891632,1,1,1,1,1,85.000000
2021-11-25 14:38:40.521,,,,,,,,,,,,,,,,,,,,,,,,,,,,,,,,,,,,,,/muse/elements/blink
2021-11-25 14:38:41.509,0.7959828880603123,1.422523376449873,1.059595083985701,0.3061842279246029,0.5988026471307389,0.9551270756924858,0.7163024529190604,0.3583225728719411,0.7063900906083918,0.9816095256368502,0.4933223927736064,0.6483113645694925,0.4034156004395864,0.7547651463812975,0.039204671675651,0.8479907197232607,0.2718997386191918,0.07221118415728797,-0.2312456824458886,0.3285001630588857,780.4761904761905,798.2051282051282,793.3699633699634,778.4615384615385,626.5567765567765,0.379944,-0.125732,0.933167,3.312225,-10.624542,-4.702911,1,1,1,1,1,85.000000
2021-11-25 14:38:42.518,1.472450585160247,1.480982483362124,0.8340312652581581,1.117852905176898,1.025090569592376,0.9693621003808652,0.2626906067073223,0.5876234440215038,0.790014531481997,0.9854623651595351,0.6644103391164885,0.8345742997786532,0.5652022347236697,0.7881145086736325,0.07497430654847845,0.8247764425429027,0.2790694551096701,0.236456012148054,-0.3698330152654052,0.4907315098264267,600.7692307692308,893.6996336996338,842.9304029304029,612.4542124542124,786.9230769230769,0.394043,-0.080444,0.931091,7.297363,-4.037476,0.052338,1,1,1,1,1,85.000000
2021-11-25 14:38:42.751,,,,,,,,,,,,,,,,,,,,,,,,,,,,,,,,,,,,,,/muse/elements/blink
2021-11-25 14:38:43.510,1.590640992735982,1.607795425812194,1.369596307330731,1.237470757545867,1.127261372133696,1.111533584741372,1.149258421074142,0.7014237494740829,0.7805952984314921,0.9854623651595351,1.209858095646093,0.7917556485862436,0.5539717119777225,0.7560330695661988,0.09400692407129561,0.5711096795834533,0.2312370829472848,0.3540064100699768,-0.1208480356284086,0.4429689704638824,794.981684981685,791.7582417582418,794.1758241758242,801.025641025641,795.7875457875458,0.387634,-0.080994,0.936890,4.979553,-4.942169,-1.084137,1,1,1,1,1,85.000000
2021-11-25 14:38:44.365,,,,,,,,,,,,,,,,,,,,,,,,,,,,,,,,,,,,,,/muse/elements/blink
2021-11-25 14:38:44.509,0.562355714071367,0.520524932736556,1.117221787035823,0.216248610558363,1.047067148464735,0.4237499588555356,0.9694899223017686,0.1488903047404254,1.260817236097346,0.205085047540123,1.201290803041963,0.878493469326696,0.7648406989055747,0.732945769069435,0.2142050685030666,0.5517562518046949,0.3424631725024682,0.06407387654613086,-0.2608571720457291,0.5747561006537559,809.0842490842491,799.4139194139194,802.6373626373627,790.5494505494506,676.9230769230769,0.419434,-0.077393,0.922241,2.018738,-9.061890,-1.734619,1,1,1,1,1,85.000000
2021-11-25 14:38:45.295,,,,,,,,,,,,,,,,,,,,,,,,,,,,,,,,,,,,,,/muse/elements/blink
2021-11-25 14:38:45.510,0.562355714071367,0.4840843003370329,1.31673850899561,0.2136114755004239,1.047067148464735,0.2890696825744963,1.031812768239712,0.06114321888621242,1.260817236097346,-0.0821600178960408,1.024496372578932,0.862539025491411,0.7648406989055747,0.7228154774960476,0.1840741077511672,0.5171459622111514,0.3424631725024682,0.01967368022362002,-0.43086214626341,0.5602186245888851,807.8754578754579,787.3260073260074,784.1025641025641,799.4139194139194,655.5677655677656,0.394470,-0.091003,0.935669,9.854431,3.551483,0.822449,1,1,1,1,1,85.000000
2021-11-25 14:38:46.510,0.562355714071367,0.4840843003370329,1.172132061736119,0.2136114755004239,1.047067148464735,0.2890696825744963,0.8586718451291383,0.06114321888621242,1.260817236097346,-0.0821600178960408,0.64268407471164,0.862539025491411,0.7648406989055747,0.7228154774960476,-0.01272475666148741,0.5171459622111514,0.3424631725024682,0.01967368022362002,-0.2775072378443919,0.5602186245888851,724.8717948717949,832.4542124542124,815.934065934066,726.0805860805862,841.3186813186813,0.319214,0.016724,0.959167,2.631836,-5.697327,-3.745880,1,1,1,1,1,85.000000
2021-11-25 14:38:46.607,,,,,,,,,,,,,,,,,,,,,,,,,,,,,,,,,,,,,,/muse/elements/blink
2021-11-25 14:38:47.312,,,,,,,,,,,,,,,,,,,,,,,,,,,,,,,,,,,,,,/muse/elements/blink
2021-11-25 14:38:47.525,0.562355714071367,0.939025847191339,1.15341812148166,0.2136114755004239,1.047067148464735,0.193992156347953,1.177621375620354,0.06114321888621242,1.260817236097346,0.1028776345182188,0.8766868576998826,0.862539025491411,0.7648406989055747,0.7428332268713861,0.04510254968400144,0.5171459622111514,0.3424631725024682,0.09716746618710081,-0.4090650299232321,0.5602186245888851,785.3113553113553,791.3553113553114,789.3406593406594,783.6996336996338,647.9120879120879,0.310913,0.012085,0.953918,3.222504,-9.046936,-3.745880,1,2,1,1,2,85.000000
2021-11-25 14:38:48.510,0.562355714071367,0.939025847191339,1.475240203531449,0.2136114755004239,1.047067148464735,0.193992156347953,1.41829204438588,0.06114321888621242,1.260817236097346,0.1028776345182188,1.105078696760121,0.862539025491411,0.7648406989055747,0.7428332268713861,0.08471650537664881,0.5171459622111514,0.3424631725024682,0.09716746618710081,-0.3718674425388494,0.5602186245888851,817.1428571428571,770.4029304029305,798.6080586080586,805.8608058608058,1014.981684981685,0.243408,0.032715,0.977539,6.497345,7.058105,4.463654,1,2,1,1,2,85.000000
2021-11-25 14:38:48.541,,,,,,,,,,,,,,,,,,,,,,,,,,,,,,,,,,,,,,/muse/elements/blink
2021-11-25 14:38:49.517,1.39707237941916,1.61559716045517,0.775568109109679,1.551570737133855,1.137868078603872,1.04242757895741,0.4597308421472809,1.302280420979417,1.440109373769541,1.043758429754432,0.3086599120971381,1.277961435314181,0.9072993194939494,0.7881798635930116,0.05874581256754532,0.9162998642731602,0.3418815412873538,0.1341575101328778,-0.4189426439802601,0.5810365697600941,794.5787545787546,781.2820512820513,790.5494505494506,810.2930402930403,826.007326007326,0.095764,0.081177,0.995544,3.215027,-0.964508,-16.149902,1,1,1,1,1,85.000000
2021-11-25 14:38:50.088,,,,,,,,,,,,,,,,,,,,,,,,,,,,,,,,,,,,,,/muse/elements/blink
2021-11-25 14:38:50.510,1.139884630646528,1.628597620099916,0.8631369471350513,1.434689662775821,0.6410612405120708,1.022744165311777,0.4394109474663355,0.8319989196216924,1.090633384731321,0.6077365250449143,0.3921686139368459,0.6203221002371933,0.7621813830454943,0.8677860704613422,0.1994346554068196,0.6241671588460547,0.4640535492766842,0.2205901350959434,-0.3633583510727613,0.5280342820022584,795.3846153846154,793.7728937728938,801.4285714285714,788.1318681318681,541.5384615384615,-0.217773,-0.093201,0.919739,-8.927307,18.370514,-21.682739,1,1,1,1,1,85.000000
2021-11-25 14:38:51.514,1.257609271497035,1.708693407180221,0.6228127686342214,1.314855654410215,0.8075400319324578,1.159882880853367,0.1079350795393102,0.7224649849667986,0.669005639731985,0.5527241487023139,0.05482042440151821,0.5571190295053797,0.592745225574719,0.9035426362028282,-0.2347439719538066,0.5759756606036156,0.2409310980417456,0.1857477756055035,-0.4796888704372083,0.4729002083944156,811.5018315018315,777.6556776556777,799.8168498168499,825.2014652014652,824.7985347985348,-0.177307,0.006409,0.920776,3.020630,-6.759033,0.284119,1,1,1,1,1,85.000000
2021-11-25 14:38:52.510,1.239317087102372,1.708693407180221,1.082571055790593,1.446532117940845,0.9268315100000095,1.159882880853367,0.3730480456446174,0.1166818077950662,0.7491188637931669,0.5527241487023139,0.1929580798669066,0.2901697507697662,0.6687905476800788,0.9035426362028282,-0.04172835619717526,0.6543224874116043,0.4654051002229702,0.1857477756055035,-0.2966031823245955,0.4657343463589935,836.0805860805862,777.6556776556777,791.3553113553114,947.6923076923077,603.992673992674,-0.218323,0.132935,0.901978,-16.987305,20.411682,4.702911,1,1,1,1,1,85.000000
2021-11-25 14:38:53.522,1.193309775776017,1.222014791357103,1.472749822514688,1.446532117940845,0.9960032787017972,1.160532320100794,0.6312762630244529,0.1166818077950662,0.6785677713094336,1.239649293316972,0.8060926630578178,0.2901697507697662,0.7436680041194376,0.7648479024522148,0.02754010522858316,0.6543224874116043,0.6119375593000851,0.2261782294621611,-0.3869043855532528,0.4657343463589935,852.1978021978023,762.7472527472528,793.3699633699634,859.8534798534798,620.9157509157509,-0.064575,0.022400,1.024719,-2.549591,-10.198364,6.071167,1,1,1,1,1,85.000000
2021-11-25 14:38:53.599,,,,,,,,,,,,,,,,,,,,,,,,,,,,,,,,,,,,,,/muse/elements/blink
2021-11-25 14:38:54.107,,,,,,,,,,,,,,,,,,,,,,,,,,,,,,,,,,,,,,/muse/elements/blink
2021-11-25 14:38:54.510,1.193309775776017,1.39863891802412,0.8367782307022725,1.446532117940845,0.9960032787017972,1.067572929783225,0.6428552572031355,0.1166818077950662,0.6785677713094336,1.069236835507874,0.8547575524740597,0.2901697507697662,0.7436680041194376,0.7158360494043748,0.02624048042975653,0.6543224874116043,0.6119375593000851,0.142833546131719,-0.3837388690508934,0.4657343463589935,794.981684981685,774.8351648351648,803.040293040293,779.2673992673992,707.5457875457876,-0.100586,0.044373,1.005798,5.196381,-1.585083,-3.342133,1,1,1,1,1,85.000000
2021-11-25 14:38:55.510,0.5215364656225756,0.03534072175390061,0.8179615148995648,1.762453734912877,0.1308606202973877,0.09745365794464145,0.8951789030066987,0.7157849005427378,0.3461314431994894,0.03146397357149846,0.8772793785698297,0.5989564213296115,0.2458698674722717,0.4550253544664606,0.1128147017053572,0.8457179330519528,0.7485254558968711,-0.3498928981798382,-0.4072219639161346,0.3545706116518005,783.2967032967033,761.1355311355312,797.3992673992674,786.9230769230769,646.7032967032967,-0.097229,-0.003418,1.008728,3.701019,-3.409424,-2.654266,1,2,1,1,2,85.000000
2021-11-25 14:38:56.267,,,,,,,,,,,,,,,,,,,,,,,,,,,,,,,,,,,,,,/muse/elements/blink
2021-11-25 14:38:56.509,0.5894477159992469,0.04459705512724174,0.4156772183950956,1.480063950001754,0.1610788175829377,0.0206342698679287,0.3107457925732398,0.4184576993417889,0.4616080801187941,0.232085206231423,0.7181166223004704,0.6552759743277008,0.4035470129717061,0.3762108343666144,-0.06127681915325055,0.6763391220723985,0.7036205548847135,-0.09821583231202323,-0.4071302125615623,0.3647634384040321,816.3369963369963,793.7728937728938,799.0109890109891,809.0842490842491,656.7765567765568,-0.044495,-0.010193,1.011658,4.628143,-4.882355,-1.121521,1,1,1,1,1,85.000000
2021-11-25 14:38:57.509,0.5846260103271812,2.436596842808277e-05,0.7895219751337507,0.7298724956266616,0.4687675683836366,-0.1347433816028671,0.6334147904811692,0.4810093372298027,0.3614899783993224,0.1350410641906034,0.7589237691632946,0.6030577451746043,0.4217778880520266,0.3554047865459323,-0.01290276309217549,0.5348256091784892,0.3788290965117002,0.04655787878048882,-0.1426134859180014,0.2480278747762586,701.5018315018315,776.4468864468864,798.2051282051282,799.4139194139194,681.7582417582418,-0.050781,-0.018982,1.015198,3.648682,-5.944061,-0.119629,1,1,1,1,1,85.000000
2021-11-25 14:38:58.284,,,,,,,,,,,,,,,,,,,,,,,,,,,,,,,,,,,,,,/muse/elements/blink
2021-11-25 14:38:58.516,0.8288534990496303,-0.2058472366160926,0.3268661201039064,1.291974568362279,0.4683591478565717,-0.2309800435468732,0.3502883229089733,0.6062829204917776,0.2037316629274976,-0.07367976647346453,0.734865626273298,0.7659343093496381,0.3597959940954819,0.4425917102506225,-0.04591673477827687,0.5870047617491163,0.3417222621000669,-0.02258576765080138,-0.1685627205015878,0.3593671607368841,786.9230769230769,772.8205128205128,800.2197802197802,816.7399267399268,854.2124542124542,-0.066162,-0.032776,1.006042,5.532837,-1.114044,-7.588959,1,1,1,1,1,85.000000
2021-11-25 14:38:59.299,,,,,,,,,,,,,,,,,,,,,,,,,,,,,,,,,,,,,,/muse/elements/blink
2021-11-25 14:38:59.510,0.8458903014001019,1.611729227274086,1.28288040313738,1.575926998843869,0.3704154994316127,0.7710948595950281,0.8584667235099673,0.7156798324904261,0.2004963624518161,0.6224802370740667,0.7886791967285898,0.6819667061910861,0.3286860350802905,0.4827425906662782,0.1893698431522735,0.6302198034957622,0.4258802851071075,-0.04125443500874271,-0.1816987682761624,0.477203934265267,781.6849816849817,780.4761904761905,802.2344322344322,855.4212454212454,613.6630036630037,-0.095398,-0.038025,0.981140,2.272949,-3.229980,-8.344116,1,1,1,1,1,85.000000
2021-11-25 14:39:00.320,,,,,,,,,,,,,,,,,,,,,,,,,,,,,,,,,,,,,,/muse/elements/blink
2021-11-25 14:39:00.510,0.8458903014001019,1.611729227274086,1.668821667398319,1.575926998843869,0.3704154994316127,0.7710948595950281,0.9196081367556709,0.7156798324904261,0.2004963624518161,0.6224802370740667,0.699685513198877,0.6819667061910861,0.3286860350802905,0.4827425906662782,0.1604207600512934,0.6302198034957622,0.4258802851071075,-0.04125443500874271,-0.04099585794868811,0.477203934265267,787.3260073260074,772.014652014652,787.7289377289378,774.4322344322345,853.8095238095239,-0.035706,0.037842,1.014832,3.521576,-8.560944,-1.241150,1,1,1,1,1,85.000000
2021-11-25 14:39:01.034,,,,,,,,,,,,,,,,,,,,,,,,,,,,,,,,,,,,,,/muse/elements/blink
2021-11-25 14:39:01.510,0.8458903014001019,1.611729227274086,1.456768965201887,1.575926998843869,0.3704154994316127,0.7710948595950281,1.27741815919726,0.7156798324904261,0.2004963624518161,0.6224802370740667,1.03590886138585,0.6819667061910861,0.3286860350802905,0.4827425906662782,0.01540326419234097,0.6302198034957622,0.4258802851071075,-0.04125443500874271,-0.08698520284072761,0.477203934265267,727.2893772893773,699.4871794871796,747.4358974358975,788.9377289377289,683.7728937728938,0.034485,0.038635,1.021301,10.175934,-4.770203,-3.985138,1,2,1,1,2,85.000000
2021-11-25 14:39:02.517,0.8458903014001019,1.554723519957192,1.071657763181243,1.575926998843869,0.3704154994316127,-0.2020008807646732,-0.5657646283982852,0.7156798324904261,0.2004963624518161,-0.5233479276656925,-0.09749385241176889,0.6819667061910861,0.3286860350802905,0.5332886035438398,0.155201554754697,0.6302198034957622,0.4258802851071075,0.08666349329335066,-0.2041737589525335,0.477203934265267,784.1025641025641,774.4322344322345,792.1611721611722,807.0695970695971,599.9633699633699,0.014526,0.044800,1.019348,4.269257,-4.874878,-1.637421,1,2,1,1,2,85.000000
2021-11-25 14:39:02.968,,,,,,,,,,,,,,,,,,,,,,,,,,,,,,,,,,,,,,/muse/elements/jaw_clench
2021-11-25 14:39:03.164,,,,,,,,,,,,,,,,,,,,,,,,,,,,,,,,,,,,,,/muse/elements/jaw_clench
2021-11-25 14:39:03.365,,,,,,,,,,,,,,,,,,,,,,,,,,,,,,,,,,,,,,/muse/elements/blink
2021-11-25 14:39:03.510,1.027037549535558,1.503040075169794,1.557541051029937,1.37323795882298,0.1389078566842956,-0.1343839755870324,0.5232812404404724,0.5689748892537089,0.01345923174076358,-0.4054112370258317,1.100001502696785,0.9486834985989174,0.4710647084536786,0.5035079286972013,0.9963268462902427,0.7219266034042823,0.4435973422329568,0.07743839929668324,0.8238979783567278,0.9950203228707081,1264.798534798535,1027.069597069597,866.3003663003664,1002.490842490843,5.238095238095238,-0.142700,0.240417,0.871948,18.056488,-23.731384,3.955231,1,1,1,1,1,85.000000
2021-11-25 14:39:03.588,,,,,,,,,,,,,,,,,,,,,,,,,,,,,,,,,,,,,,/muse/elements/blink
2021-11-25 14:39:04.517,1.027037549535558,1.388530317883704,1.950065895280577,1.704390590377155,0.1389078566842956,-0.03836000716655845,0.9614743188895749,0.7970863320477243,0.01345923174076358,-0.5265192697397666,1.100001502696785,0.9486834985989174,0.4710647084536786,0.4439332307997004,1.415140295294878,0.898259119521049,0.4435973422329568,0.02210839393913635,1.252642982911186,0.989922249138822,1029.487179487179,744.6153846153846,770.4029304029305,824.7985347985348,919.0842490842491,-0.009277,0.113831,1.030090,1.158905,5.001984,-7.753448,1,2,1,1,1,85.000000
2021-11-25 14:39:05.409,,,,,,,,,,,,,,,,,,,,,,,,,,,,,,,,,,,,,,/muse/elements/blink
2021-11-25 14:39:05.510,1.027037549535558,1.388530317883704,1.348776343807012,1.704390590377155,0.1389078566842956,-0.03836000716655845,0.6711642874255646,0.7970863320477243,0.01345923174076358,-0.5265192697397666,0.8083714723954566,0.9486834985989174,0.4710647084536786,0.4439332307997004,1.443568106722495,0.898259119521049,0.4435973422329568,0.02210839393913635,1.754598227853851,0.989922249138822,868.7179487179487,837.2893772893773,798.6080586080586,790.1465201465202,834.0659340659341,0.198181,0.044128,0.973145,-20.172424,1.764526,-18.549957,1,2,4,1,1,85.000000
2021-11-25 14:39:06.510,1.027037549535558,1.388530317883704,1.367189412561054,1.704390590377155,0.1389078566842956,-0.03836000716655845,0.65368972678168,0.7970863320477243,0.01345923174076358,-0.5265192697397666,0.8780133043345921,0.9486834985989174,0.4710647084536786,0.4439332307997004,1.254623926375283,0.898259119521049,0.4435973422329568,0.02210839393913635,1.444325038895253,0.989922249138822,570.5494505494505,716.007326007326,765.5677655677656,876.3736263736264,649.92673992674,0.363770,0.009766,0.954102,8.680573,-2.265472,5.757141,1,2,1,1,2,85.000000
2021-11-25 14:39:06.904,,,,,,,,,,,,,,,,,,,,,,,,,,,,,,,,,,,,,,/muse/elements/blink
2021-11-25 14:39:07.232,,,,,,,,,,,,,,,,,,,,,,,,,,,,,,,,,,,,,,/muse/elements/blink
2021-11-25 14:39:07.510,1.027037549535558,2.257551838185466,1.443780478522708,1.704390590377155,0.1389078566842956,1.257816383124722,0.8493649052493099,0.7970863320477243,0.01345923174076358,0.206569102981289,0.8748648190208906,0.9486834985989174,0.4710647084536786,0.4660345242053039,0.4521387167235317,0.898259119521049,0.4435973422329568,0.1234186641309197,0.2520915707179303,0.989922249138822,865.0915750915751,740.5860805860806,794.1758241758242,778.0586080586081,682.1611721611722,0.044434,0.065430,0.978821,14.325562,-0.052338,-0.373840,1,2,1,1,2,85.000000
2021-11-25 14:39:07.933,,,,,,,,,,,,,,,,,,,,,,,,,,,,,,,,,,,,,,/muse/elements/blink
2021-11-25 14:39:08.511,1.027037549535558,2.230199824132685,1.236099850141519,1.704390590377155,0.1389078566842956,1.254942215356442,1.03783463555723,0.7970863320477243,0.01345923174076358,0.1350751238815232,0.9079959204678945,0.9486834985989174,0.4710647084536786,0.462478930531756,0.2280731275329552,0.898259119521049,0.4435973422329568,0.09248592388127601,0.08319008053634094,0.989922249138822,807.8754578754579,748.2417582417582,802.2344322344322,787.7289377289378,729.7069597069598,-0.030151,0.066589,1.064453,3.783264,-0.957031,-2.459869,1,2,1,1,2,85.000000
