TimeStamp,Delta_TP9,Delta_AF7,Delta_AF8,Delta_TP10,Theta_TP9,Theta_AF7,Theta_AF8,Theta_TP10,Alpha_TP9,Alpha_AF7,Alpha_AF8,Alpha_TP10,Beta_TP9,Beta_AF7,Beta_AF8,Beta_TP10,Gamma_TP9,Gamma_AF7,Gamma_AF8,Gamma_TP10,RAW_TP9,RAW_AF7,RAW_AF8,RAW_TP10,AUX_RIGHT,Accelerometer_X,Accelerometer_Y,Accelerometer_Z,Gyro_X,Gyro_Y,Gyro_Z,HeadBandOn,HSI_TP9,HSI_AF7,HSI_AF8,HSI_TP10,Battery,Elements
2021-11-02 20:17:12.270,1.617572246831289,0.8536160928026892,0,0.7625747808761082,1.16284862117712,0.5650533702757011,0,0.5486109396066761,1.151887022736134,0.3485849843138379,0,0.5875480860483234,0.4300882499558574,1.406267681745802,0,0.8733254577696371,0.07672408035021751,1.005181462894888,0,0.4285677887849887,781.2820512820513,747.4358974358975,327.1794871794872,680.952380952381,605.6043956043957,0.008301,0.031616,1.003906,4.515991,-4.388885,-2.871094,1,1,1,2,1,100.000000
2021-11-02 20:17:13.271,1.204862835532063,0.5338362476288616,0,1.15040078097148,0.9995011509631885,-0.00885728790895177,0,0.8739316593321107,0.8528254892151665,0.3112129733245174,0,1.020884103919256,0.6149029386450455,1.431094934268325,0,0.890450411973157,0.1806072854695356,1.036242313860756,0,0.6660207094997818,772.4175824175825,765.9706959706959,143.8461538461538,649.1208791208792,686.1904761904763,0.018738,0.053955,1.016113,5.734711,-6.415100,-2.452393,1,1,1,2,1,100.000000
2021-11-02 20:17:14.275,1.050220175546468,0.6503492410767625,0,1.209624234132427,0.9126744303974494,-0.05826879492147272,0,0.9855686113410096,0.8213996399903115,0.3059927686443868,0,1.020884103919256,0.6095439509972141,1.366398704795573,0,0.8789775571569887,0.2111112063666375,0.9418263321858494,0,0.6948967694932026,780.0732600732601,755.0915750915751,172.8571428571429,718.8278388278388,753.8827838827839,0.031250,0.045959,1.009888,4.396362,-5.495453,-2.758942,1,1,1,2,1,100.000000
2021-11-02 20:17:15.271,0.9226482293003961,0.4309659685202096,0,0.955687939960241,0.6575414230098579,0.0342141591395629,0,0.7341103443830197,0.7937043431010107,0.4402481936789393,0,0.922716843190525,0.5507062613516533,1.369197862926982,0,1.063083519521121,0.2239215205947077,0.9266944784268618,0,0.5822542196205343,798.2051282051282,755.0915750915751,362.2344322344322,682.5641025641025,813.5164835164835,0.017700,0.042297,1.018250,4.830017,-2.235565,-1.577606,1,1,1,2,1,100.000000
2021-11-02 20:17:15.759,,,,,,,,,,,,,,,,,,,,,,,,,,,,,,,,,,,,,,/muse/elements/blink
2021-11-02 20:17:16.271,0.9395680441191083,0.8685702718349779,0,1.024998885999702,0.5156491792143226,0.363595026239308,0,0.5959959343264019,0.8066211909578247,0.4442547082929234,0,0.5966566534106128,0.5639916945846529,1.329889718578388,0,1.075199411413166,0.2289561189840444,0.9227443653429876,0,0.6650068207280214,797.3992673992674,786.9230769230769,246.5934065934066,670.8791208791209,630.989010989011,-0.037415,0.011169,0.988281,7.805786,-8.187103,-2.198181,1,1,1,2,1,100.000000
2021-11-02 20:17:17.270,1.014132895697313,0.5078509183706825,0,1.029885745099994,0.4503503549198988,0.5380076187334812,0,0.5285594411430955,0.7498347978215372,0.7998095415713402,0,0.5644196424787051,0.5959413678679781,1.251144596668626,0,0.9056721160493962,0.188013691007139,0.9346647766017546,0,0.9165927426364699,725.6776556776557,795.7875457875458,236.1172161172161,641.4652014652015,788.1318681318681,-0.031860,0.063843,1.004639,2.340240,-3.790741,-1.300964,1,1,1,2,1,100.000000
2021-11-02 20:17:17.494,,,,,,,,,,,,,,,,,,,,,,,,,,,,,,,,,,,,,,/muse/elements/blink
2021-11-02 20:17:18.002,,,,,,,,,,,,,,,,,,,,,,,,,,,,,,,,,,,,,,/muse/elements/blink
2021-11-02 20:17:18.270,1.014132895697313,1.009084718101057,0,0.9291360793562109,0.4503503549198988,0.7711175444400074,0,0.5681560752348216,0.7498347978215372,0.7805513727995629,0,0.5294687300013711,0.5959413678679781,1.272427227173171,0,0.9138283929146749,0.188013691007139,0.6070813806961228,0,0.8914283806991986,800.6227106227107,782.893772893773,178.0952380952381,718.4249084249085,706.7399267399268,-0.043762,0.063354,1.012756,5.540314,-4.822540,-1.383209,1,1,1,2,1,100.000000
2021-11-02 20:17:19.271,1.014132895697313,0.9112821752027969,0,0.837151032954209,0.4503503549198988,0.6838076247783622,0,0.6553484076220191,0.7498347978215372,0.5980150268407669,0,0.4687183658771779,0.5959413678679781,1.216940717007942,0,0.9475811464396313,0.188013691007139,0.7274685468276061,0,0.9004747248201257,780.0732600732601,788.5347985347986,30.21978021978022,672.4908424908425,697.8754578754579,-0.061768,0.053040,1.009094,5.585175,-4.650574,-2.415009,1,1,1,2,1,100.000000
2021-11-02 20:17:20.278,0.8729561052781467,-0.1866480718981498,0,0.7123385963920353,-0.001933947853605843,-0.06030671280776638,0,0.3491531849129976,0.6407810746693882,0.7366529782713142,0,0.80836440024517,0.5929341945507224,1.237865147100476,0,0.7582864422164119,0.2893050593742824,0.8139270333584127,0,0.5279403891405903,779.2673992673992,757.5091575091575,158.3516483516484,764.3589743589744,1060.10989010989,-0.036316,0.044739,1.003662,4.919739,-4.605713,-1.951447,1,1,1,2,1,100.000000
2021-11-02 20:17:21.271,0.7658341492519357,0.3362776826211696,0,0.4168760394963912,0.175677495855249,-0.005270716584795013,0,0.1709134173283994,0.5040696131269383,0.4821494520562367,0,0.5989752771446508,0.2886912680822648,1.071957486956052,0,0.7381606866516698,0.1291567547957511,0.734417247151705,0,0.5066407411126188,785.7142857142858,792.5641025641025,530.6593406593407,735.7509157509157,765.1648351648352,-0.048096,0.050842,1.003906,5.495453,-6.145935,-2.542114,1,1,1,2,1,100.000000
2021-11-02 20:17:22.271,0.771894881652455,0.4871541437975492,0,0.6786447144148706,0.3354763951991914,0.02121928555286076,0,0.370737171842031,0.4266939604343929,0.4166223019007199,0,0.7757809517898004,0.4703425522611335,1.106638521127538,0,0.8337082263820152,0.1111242370164531,0.80556695978709,0,0.6816545790769907,809.8901098901099,792.967032967033,314.6886446886447,718.4249084249085,752.6739926739926,-0.064880,0.049683,1.002441,3.551483,-4.553375,-1.734619,1,1,1,2,1,100.000000
2021-11-02 20:17:22.280,,,,,,,,,,,,,,,,,,,,,,,,,,,,,,,,,,,,,,/muse/elements/blink
2021-11-02 20:17:23.206,,,,,,,,,,,,,,,,,,,,,,,,,,,,,,,,,,,,,,/muse/elements/blink
2021-11-02 20:17:23.271,0.6568144998557522,0.9064618171922563,0,0.8778761804644583,0.4861042000265636,0.5216544456723293,0,0.2642175010340349,0.3831327950383189,0.5304197293412467,0,0.6020520601830012,0.5051923751192571,1.115892118749986,0,0.865400121772575,0.1688378544150638,0.6873594255572002,0,0.8071983583515216,802.6373626373627,772.014652014652,384.3956043956044,826.4102564102565,855.8241758241759,-0.054260,0.047974,1.014221,3.955231,-6.056213,-1.689758,1,1,1,2,1,100.000000
2021-11-02 20:17:24.102,,,,,,,,,,,,,,,,,,,,,,,,,,,,,,,,,,,,,,/muse/elements/blink
2021-11-02 20:17:24.271,0.6568144998557522,1.039849167402265,0,0.8778761804644583,0.4861042000265636,0.4688501098138879,0,0.2642175010340349,0.3831327950383189,0.503727209432831,0,0.6020520601830012,0.5051923751192571,1.053173045899396,0,0.865400121772575,0.1688378544150638,0.5639776368623862,0,0.8071983583515216,657.985347985348,820.7692307692308,151.9047619047619,654.3589743589744,681.7582417582418,-0.060730,0.039001,1.031189,4.844971,-6.931000,-0.822449,1,1,1,2,1,100.000000
2021-11-02 20:17:24.517,,,,,,,,,,,,,,,,,,,,,,,,,,,,,,,,,,,,,,/muse/elements/blink
2021-11-02 20:17:25.274,0.6568144998557522,1.218596328575808,0,0.8778761804644583,0.4861042000265636,0.5796160477111141,0,0.2642175010340349,0.3831327950383189,0.625779644621225,0,0.6020520601830012,0.5051923751192571,1.045560015783639,0,0.865400121772575,0.1688378544150638,0.4563527990709949,0,0.8071983583515216,813.5164835164835,983.5531135531136,238.1318681318681,839.3040293040293,931.1721611721612,-0.061035,0.038269,1.003235,4.762726,-3.992615,-2.213135,1,2,1,2,2,100.000000
2021-11-02 20:17:26.271,1.826676654303042,1.528278532392036,0,1.571143493468875,1.207547719411157,0.6968444419419464,0,1.024492083300651,0.6095440162861362,0.6504255922903923,0,0.6916433784477828,0.2348970731231418,1.088106797676419,0,0.8912788601046571,0.3438272023332962,0.4787976089967013,0,0.8859638178966049,792.5641025641025,780.4761904761905,557.6556776556777,796.1904761904763,993.6263736263736,-0.066345,0.037292,1.002319,4.471130,-2.945862,-2.235565,1,1,1,2,1,100.000000
2021-11-02 20:17:27.271,1.533136820460325,0.4417611543127027,0,1.249804003997452,1.028984413118273,-0.08263459941434988,0,0.8459159005800669,0.9606375027777655,-0.03001344108022829,0,0.8657489703117692,0.5637277209606039,1.222995243404442,0,0.7805892657610632,0.2047208019756044,0.4340497923856319,0,0.7781965103569994,815.5311355311355,815.5311355311355,461.7582417582418,794.981684981685,747.8388278388279,-0.069214,0.043152,1.007874,4.201965,-5.061798,-1.689758,1,1,1,2,1,100.000000
2021-11-02 20:17:28.271,1.121721591112874,0.3163062063278168,0,0.4862922943091744,0.7134654835419633,-0.1201504747120744,0,0.5738556788733578,0.9259192473657103,0.1440032250249097,0,0.7251212743845952,0.5971257308488949,1.186259363394049,0,0.7786279004186574,0.2684152520945329,0.7160917571144813,0,0.6940896457629214,775.6410256410256,791.3553113553114,407.7655677655678,745.4212454212454,731.7216117216118,-0.071350,0.038330,0.998230,3.484192,-5.510406,-1.929016,1,1,1,2,1,100.000000
2021-11-02 20:17:29.168,,,,,,,,,,,,,,,,,,,,,,,,,,,,,,,,,,,,,,/muse/elements/blink
2021-11-02 20:17:29.271,0.9604974612893863,0.1560815597226578,0,0.2605441526412326,0.232583251608111,-0.0658916821056412,0,0.4344693926978562,0.3754581111788495,0.583155414065591,0,0.5641185622187138,0.3684338268267549,1.101213539698919,0,0.7716490845147663,0.09394631889646918,0.8299665021230086,0,0.6762263568890595,783.2967032967033,774.4322344322345,379.96336996337,846.5567765567765,1072.197802197802,-0.081055,0.043274,1.011047,3.992615,-5.016937,-2.123413,1,1,1,2,1,100.000000
2021-11-02 20:17:30.270,0.6950805502279145,1.077650665650049,0,0.4719122356348429,-0.05461305750934858,0.5829587817547467,0,-0.1232833332720969,0.2595169885005929,0.5540870036139888,0,0.1209321050487099,0.3174670676335002,1.062229225612051,0,0.8040965798829549,-0.0429371270084607,0.7104821590930018,0,0.629241904305439,773.2234432234433,827.6190476190476,595.1282051282052,805.4578754578755,821.1721611721612,-0.089172,0.025940,1.007385,3.760834,-5.360870,-1.809387,1,1,1,2,1,100.000000
2021-11-02 20:17:30.533,,,,,,,,,,,,,,,,,,,,,,,,,,,,,,,,,,,,,,/muse/elements/blink
2021-11-02 20:17:31.278,0.6121918506958234,1.239623983289519,0,0.5624698040701364,0.2176407335940658,0.3453033595602508,0,-0.2020554434004778,0.330525610783655,0.2045048094640025,0,0.09134950137527716,0.5716313483243429,1.16309499443835,0,0.8279084451079446,0.3420751831711429,0.5863434751411347,0,0.7092300417884774,770,812.7106227106227,734.1391941391942,888.0586080586081,951.3186813186813,-0.085022,0.028687,1.006104,4.127197,-4.590759,-2.549591,1,1,1,2,1,100.000000
2021-11-02 20:17:32.270,0.3937313243838535,1.234964250230694,0,0.3351576974281786,0.1054833733481732,0.4560015123730389,0,0.3221812786531184,0.4174708165234877,0.5768406226911323,0,0.7216404865997027,0.6689666492062074,1.145349151544899,0,1.089897488651144,0.6502516905688255,0.5761767994186393,0,1.029253356665571,518.1684981684982,894.908424908425,351.3553113553114,563.6996336996338,1060.10989010989,-0.099976,0.057007,0.947083,10.564728,-6.183319,-21.121979,1,1,1,2,1,100.000000
2021-11-02 20:17:32.451,,,,,,,,,,,,,,,,,,,,,,,,,,,,,,,,,,,,,,/muse/elements/blink
2021-11-02 20:17:33.241,,,,,,,,,,,,,,,,,,,,,,,,,,,,,,,,,,,,,,/muse/elements/blink
2021-11-02 20:17:33.273,0.3457057026440262,0.9683002142298383,0,0.180421092458691,0.09520460047261986,0.4733383863231602,0,0.19654299237228,0.2887907856268035,0.2508416991858414,0,0.4729945563185472,0.5754501870522605,1.017631385783707,0,1.123873486013353,0.5749809081671825,0.5156624146639319,0,0.9542241862351396,32.23443223443223,1615.347985347985,1623.809523809524,34.65201465201465,945.2747252747253,0.540100,-0.185486,0.731934,-4.553375,-3.521576,-31.776428,1,1,1,4,1,100.000000
2021-11-02 20:17:33.936,,,,,,,,,,,,,,,,,,,,,,,,,,,,,,,,,,,,,,/muse/elements/blink
2021-11-02 20:17:34.271,0.3457057026440262,0.8754955176878298,0,0.180421092458691,0.09520460047261986,0.4036432955558294,0,0.19654299237228,0.2887907856268035,0.150486103539106,0,0.4729945563185472,0.5754501870522605,1.008297290025771,0,1.123873486013353,0.5749809081671825,0.4328041713208564,0,0.9542241862351396,936.4102564102565,755.8974358974359,513.7362637362637,778.8644688644689,570.5494505494505,0.242798,-0.247131,0.984253,25.391235,-5.839386,47.956238,1,2,2,4,2,100.000000
2021-11-02 20:17:34.653,,,,,,,,,,,,,,,,,,,,,,,,,,,,,,,,,,,,,,/muse/elements/blink
2021-11-02 20:17:34.872,,,,,,,,,,,,,,,,,,,,,,,,,,,,,,,,,,,,,,/muse/elements/blink
2021-11-02 20:17:35.068,,,,,,,,,,,,,,,,,,,,,,,,,,,,,,,,,,,,,,/muse/elements/blink
2021-11-02 20:17:35.246,,,,,,,,,,,,,,,,,,,,,,,,,,,,,,,,,,,,,,/muse/elements/blink
2021-11-02 20:17:35.270,0.3457057026440262,0.8754955176878298,0,0.180421092458691,0.09520460047261986,0.4036432955558294,0,0.19654299237228,0.2887907856268035,0.150486103539106,0,0.4729945563185472,0.5754501870522605,1.008297290025771,0,1.123873486013353,0.5749809081671825,0.4328041713208564,0,0.9542241862351396,785.7142857142858,817.948717948718,235.7142857142857,854.2124542124542,935.2014652014652,-0.086731,-0.241943,0.961792,-3.424377,-2.138367,-0.949554,1,2,2,4,2,100.000000
2021-11-02 20:17:35.572,,,,,,,,,,,,,,,,,,,,,,,,,,,,,,,,,,,,,,/muse/elements/blink
2021-11-02 20:17:35.792,,,,,,,,,,,,,,,,,,,,,,,,,,,,,,,,,,,,,,/muse/elements/blink
2021-11-02 20:17:36.271,0.3457057026440262,0.8754955176878298,0,0.180421092458691,0.09520460047261986,0.4036432955558294,0,0.19654299237228,0.2887907856268035,0.150486103539106,0,0.4729945563185472,0.5754501870522605,1.008297290025771,0,1.123873486013353,0.5749809081671825,0.4328041713208564,0,0.9542241862351396,658.3882783882784,598.3516483516484,0,822.7838827838829,821.1721611721612,-0.086975,-0.100342,0.948364,10.609589,-27.193146,15.805969,1,2,2,4,2,100.000000
2021-11-02 20:17:36.383,,,,,,,,,,,,,,,,,,,,,,,,,,,,,,,,,,,,,,/muse/elements/blink
2021-11-02 20:17:36.818,,,,,,,,,,,,,,,,,,,,,,,,,,,,,,,,,,,,,,/muse/elements/jaw_clench
2021-11-02 20:17:37.271,0.3457057026440262,0.8754955176878298,0,0.180421092458691,0.09520460047261986,0.4036432955558294,0,0.19654299237228,0.2887907856268035,0.150486103539106,0,0.4729945563185472,0.5754501870522605,1.008297290025771,0,1.123873486013353,0.5749809081671825,0.4328041713208564,0,0.9542241862351396,870.3296703296703,707.5457875457876,0.4029304029304029,853.8095238095239,826.8131868131868,0.017944,-0.006592,1.013367,-0.508423,-11.185303,20.882721,1,2,1,4,2,100.000000
2021-11-02 20:17:37.407,,,,,,,,,,,,,,,,,,,,,,,,,,,,,,,,,,,,,,/muse/elements/jaw_clench
2021-11-02 20:17:37.933,,,,,,,,,,,,,,,,,,,,,,,,,,,,,,,,,,,,,,/muse/elements/jaw_clench
2021-11-02 20:17:38.271,0.3457057026440262,1.165473449789481,0,1.418093658226648,0.09520460047261986,0.6469742015472776,0,1.01689723847981,0.2887907856268035,0.6990437456249431,0,0.9398134603035451,0.5754501870522605,0.781522165057283,0,1.083180500114042,0.5749809081671825,0.5742100876259929,0,1.118615166737101,817.948717948718,736.5567765567765,786.5201465201466,921.5018315018315,1144.322344322344,-0.102722,0.083862,1.015259,14.841461,-7.319794,-11.671295,1,1,1,4,1,100.000000
2021-11-02 20:17:38.727,,,,,,,,,,,,,,,,,,,,,,,,,,,,,,,,,,,,,,/muse/elements/jaw_clench
2021-11-02 20:17:39.055,,,,,,,,,,,,,,,,,,,,,,,,,,,,,,,,,,,,,,/muse/elements/blink
2021-11-02 20:17:39.055,,,,,,,,,,,,,,,,,,,,,,,,,,,,,,,,,,,,,,/muse/elements/jaw_clench
2021-11-02 20:17:39.271,0.3457057026440262,1.424040145057641,0,1.476566642132809,0.09520460047261986,0.9135997456886411,0,1.074465128961898,0.2887907856268035,0.7511427675678527,0,1.064161877893652,0.5754501870522605,0.7899594375557456,0,1.127764710781984,0.5749809081671825,0.4453955960062927,0,1.081525431335238,840.1098901098901,762.3443223443223,706.7399267399268,919.0842490842491,776.4468864468864,-0.050720,0.133606,1.014160,6.213226,-13.675079,-2.205658,1,1,1,2,1,100.000000
2021-11-02 20:17:39.520,,,,,,,,,,,,,,,,,,,,,,,,,,,,,,,,,,,,,,/muse/elements/blink
2021-11-02 20:17:39.761,,,,,,,,,,,,,,,,,,,,,,,,,,,,,,,,,,,,,,/muse/elements/jaw_clench
2021-11-02 20:17:39.961,,,,,,,,,,,,,,,,,,,,,,,,,,,,,,,,,,,,,,/muse/elements/jaw_clench
2021-11-02 20:17:40.270,0.3457057026440262,1.754214856205209,0,1.517616842772532,0.09520460047261986,1.242105500597913,0,1.18220219746325,0.2887907856268035,0.8364054500186687,0,1.056514352172021,0.5754501870522605,0.662992558028784,0,1.159931647098012,0.5749809081671825,0.2398382505575485,0,1.029137884951825,799.8168498168499,748.2417582417582,0,882.4175824175825,1308.315018315018,0.018188,0.067322,0.977722,6.990814,12.688141,-10.602112,1,1,1,4,1,100.000000
2021-11-02 20:17:40.379,,,,,,,,,,,,,,,,,,,,,,,,,,,,,,,,,,,,,,/muse/elements/jaw_clench
2021-11-02 20:17:40.470,,,,,,,,,,,,,,,,,,,,,,,,,,,,,,,,,,,,,,/muse/elements/blink
2021-11-02 20:17:40.887,,,,,,,,,,,,,,,,,,,,,,,,,,,,,,,,,,,,,,/muse/elements/blink
2021-11-02 20:17:41.262,,,,,,,,,,,,,,,,,,,,,,,,,,,,,,,,,,,,,,/muse/elements/jaw_clench
2021-11-02 20:17:41.273,0.3457057026440262,1.468768468000083,0,1.517616842772532,0.09520460047261986,1.062078520041413,0,1.18220219746325,0.2887907856268035,0.8325224283496536,0,1.056514352172021,0.5754501870522605,0.6121685062194692,0,1.159931647098012,0.5749809081671825,0.3864953938906299,0,1.029137884951825,774.8351648351648,764.3589743589744,222.014652014652,877.5824175824176,861.8681318681319,-0.013733,0.101562,1.006714,4.172058,-7.035675,0.471039,1,2,1,4,2,100.000000
2021-11-02 20:17:41.482,,,,,,,,,,,,,,,,,,,,,,,,,,,,,,,,,,,,,,/muse/elements/jaw_clench
2021-11-02 20:17:41.745,,,,,,,,,,,,,,,,,,,,,,,,,,,,,,,,,,,,,,/muse/elements/jaw_clench
2021-11-02 20:17:42.271,0.3457057026440262,1.404291475127434,0,1.517616842772532,0.09520460047261986,0.8348825962172944,0,1.18220219746325,0.2887907856268035,0.566600746702866,0,1.056514352172021,0.5754501870522605,0.7130439125383518,0,1.159931647098012,0.5749809081671825,0.3001299619475465,0,1.029137884951825,735.7509157509157,758.3150183150184,1129.010989010989,805.4578754578755,658.7912087912088,-0.030518,0.110962,1.000610,4.934692,-9.323578,3.992615,1,2,1,2,2,100.000000
2021-11-02 20:17:42.276,,,,,,,,,,,,,,,,,,,,,,,,,,,,,,,,,,,,,,/muse/elements/jaw_clench
2021-11-02 20:17:43.071,,,,,,,,,,,,,,,,,,,,,,,,,,,,,,,,,,,,,,/muse/elements/jaw_clench
2021-11-02 20:17:43.279,1.62779158095353,1.299645854903088,0,1.5041391094874,1.167389796480772,0.6255025628717976,0,0.5868205382993462,0.8525016090137449,0.6304146482973193,0,0.9184342536491544,0.6495366039661511,0.7080121661415794,0,1.03204348531065,0.4557996719932199,0.3146249126677187,0,1.15079371600616,779.2673992673992,820.7692307692308,604.7985347985348,894.5054945054945,912.6373626373627,-0.037109,0.103882,1.013000,1.390686,-4.725342,-1.809387,1,1,1,2,1,100.000000
2021-11-02 20:17:43.332,,,,,,,,,,,,,,,,,,,,,,,,,,,,,,,,,,,,,,/muse/elements/jaw_clench
2021-11-02 20:17:44.105,,,,,,,,,,,,,,,,,,,,,,,,,,,,,,,,,,,,,,/muse/elements/jaw_clench
2021-11-02 20:17:44.215,,,,,,,,,,,,,,,,,,,,,,,,,,,,,,,,,,,,,,/muse/elements/blink
2021-11-02 20:17:44.271,1.802286584288931,1.234518174817814,0,1.620343265032321,1.201850395929859,0.6553246490082856,0,0.8192352033959364,0.9175814336799654,0.7670609217588902,0,1.066249634659731,0.5349346498377883,0.7149237977942542,0,0.9899806119982234,0.4994403605964114,0.2471073888151073,0,1.124162836554989,834.8717948717949,748.6446886446887,1623.809523809524,892.0879120879121,883.2234432234433,-0.120483,0.129761,0.970703,3.080444,-0.127106,-5.099182,1,1,1,4,1,100.000000
2021-11-02 20:17:44.723,,,,,,,,,,,,,,,,,,,,,,,,,,,,,,,,,,,,,,/muse/elements/blink
2021-11-02 20:17:45.271,2.076105272836583,1.179211420469853,0,1.540330479908711,1.143517898980493,0.8816704301346311,0,0.8933210123519412,0.7462377691246921,0.6647159384886365,0,0.9595266009128746,0.628877120157345,0.7028844888000845,0,0.8768334130142545,0.6445534268203875,0.2853112069538805,0,0.8919847519099191,771.6117216117216,794.5787545787546,0,840.1098901098901,922.3076923076924,-0.010620,0.138672,0.981445,22.198639,3.506622,-13.293762,1,1,1,4,1,100.000000
2021-11-02 20:17:45.535,,,,,,,,,,,,,,,,,,,,,,,,,,,,,,,,,,,,,,/muse/elements/blink
2021-11-02 20:17:45.624,,,,,,,,,,,,,,,,,,,,,,,,,,,,,,,,,,,,,,/muse/elements/jaw_clench
2021-11-02 20:17:45.864,,,,,,,,,,,,,,,,,,,,,,,,,,,,,,,,,,,,,,/muse/elements/jaw_clench
2021-11-02 20:17:46.219,,,,,,,,,,,,,,,,,,,,,,,,,,,,,,,,,,,,,,/muse/elements/jaw_clench
2021-11-02 20:17:46.275,2.076105272836583,1.046848615778228,0,1.246180437086711,1.143517898980493,0.813289005977428,0,1.42944327546913,0.7462377691246921,0.5096271964896802,0,1.171098656849792,0.628877120157345,0.6752186772564752,0,1.030869569935879,0.6445534268203875,0.4231596584804936,0,0.9305077360986739,788.5347985347986,779.2673992673992,289.7069597069597,862.2710622710623,738.974358974359,-0.043091,0.117004,1.024048,5.966492,-7.334747,-1.779480,1,1,1,4,1,100.000000
2021-11-02 20:17:46.463,,,,,,,,,,,,,,,,,,,,,,,,,,,,,,,,,,,,,,/muse/elements/jaw_clench
2021-11-02 20:17:47.273,1.537850699273276,0.8472331065211879,0,1.162423357788934,1.146325542016431,0.644240239120353,0,1.199240706357724,0.8634938586410418,0.3488020251021625,0,1.24725744355643,0.5337225755407666,0.5207470146295999,0,1.070118433146156,0.4449685726190639,0.2694342990441099,0,0.9640004670601781,787.3260073260074,799.8168498168499,850.1831501831502,888.8644688644689,1043.992673992674,-0.055786,0.114197,1.015259,5.368347,-4.269257,-2.945862,1,1,1,2,1,100.000000
2021-11-02 20:17:48.271,1.769548455270494,0.3411552709985076,0,1.020302161813756,0.8081146132049608,0.2298124172855696,0,0.840261064549695,0.8825500437116562,0.1049658057998415,0,1.034334473618365,0.604996779195345,0.6202053867407359,0,0.9210324244143782,0.4737578553035988,0.1318867592636471,0,0.8247693690460555,776.8498168498169,811.9047619047619,879.1941391941392,871.5384615384615,805.4578754578755,-0.055969,0.091370,0.997986,5.129089,-5.368347,-1.061707,1,1,1,2,1,100.000000
2021-11-02 20:17:48.988,,,,,,,,,,,,,,,,,,,,,,,,,,,,,,,,,,,,,,/muse/elements/blink
2021-11-02 20:17:49.271,1.372544494737528,0.1595089929256757,0,0.7462677493489125,0.8133364334093861,-0.3406571866626151,0,0.368854457416246,1.254624249194652,0.04289923047423262,0,0.925125787714264,0.5914322452879281,0.6433489085473215,0,0.8234329260253255,0.1945785491338221,0.180977544663756,0,0.7758056555011641,766.7765567765568,819.1575091575091,853.8095238095239,871.1355311355312,953.3333333333334,-0.059021,0.102356,1.000854,4.306641,-5.106659,-2.168274,1,1,1,2,1,100.000000
2021-11-02 20:17:50.127,,,,,,,,,,,,,,,,,,,,,,,,,,,,,,,,,,,,,,/muse/elements/blink
2021-11-02 20:17:50.271,1.388117281925657,0.7332863690963286,0,0.2650384722707763,1.329139061179464,0.2518649880916647,0,0.4468406136907791,1.365972038313138,0.09989560149916048,0,0.925125787714264,0.6282784976528974,0.5681870340837045,0,0.9234440375632189,0.2766563266139734,0.2312171856670708,0,0.9620656449586061,804.2490842490843,820.3663003663004,646.3003663003664,877.1794871794872,814.7252747252747,-0.053467,0.107483,1.002869,4.972076,-4.448700,-1.712189,1,1,1,2,1,100.000000
2021-11-02 20:17:51.276,0.8975159844784267,0.7199844690072492,0,0.2650384722707763,0.3943714125581982,0.2976261674534132,0,0.4468406136907791,0.4173811964152434,0.1376708885349564,0,0.925125787714264,0.6307684820787085,0.5918033082543586,0,0.9234440375632189,0.2650118943402133,0.1252038656574719,0,0.9620656449586061,797.8021978021978,815.934065934066,606.8131868131868,876.3736263736264,808.6813186813187,-0.069946,0.106201,0.998657,3.880463,-4.762726,-2.138367,1,1,1,2,1,100.000000
2021-11-02 20:17:52.271,0.9355793905492494,0.7297472412034152,0,0.5445998606880244,0.3335913071368427,0.4948619121007082,0,0.3821658061951886,0.6855132353685414,0.3607381631176374,0,0.6127291943170423,0.5637300643034479,0.6945713467705135,0,0.9363513947519443,0.4174577168839166,0.07545192241334545,0,0.9725049285174797,794.5787545787546,882.4175824175825,65.27472527472527,882.8205128205128,1177.362637362637,-0.071838,0.102417,1.006348,4.433746,-6.332855,-2.893524,1,1,1,2,1,100.000000
2021-11-02 20:17:53.274,1.034360349020455,1.017726238259031,0,0.7595972909582529,0.297648533776567,0.8151951700785812,0,0.2468238958705148,0.4813893351441029,0.3589616068758998,0,0.7873926134094357,0.5303786923798047,0.6960656180881641,0,0.93444200408162,0.4218598627723871,0.1389399530062139,0,1.034619327096008,812.3076923076924,797.8021978021978,465.7875457875458,856.2271062271062,875.5677655677656,-0.069702,0.108215,0.999084,5.069275,-3.902893,-1.951447,1,1,1,2,1,100.000000
2021-11-02 20:17:54.271,0.7099824307946557,0.5229749002335066,0,0.6231422143454056,0.07787052871616744,-0.03353981832822743,0,0.3866818868359997,0.4406864511263832,0.04709657382986782,0,0.9048033550282624,0.6636357504539726,0.5928480482286357,0,0.9670088676678794,0.4683543282062982,-0.02118590336161626,0,0.9886818197509231,814.3223443223443,821.978021978022,641.4652014652015,875.1648351648352,837.6923076923077,-0.081116,0.100830,1.005188,3.708496,-6.018829,-2.377625,1,1,1,2,1,100.000000
2021-11-02 20:17:54.296,,,,,,,,,,,,,,,,,,,,,,,,,,,,,,,,,,,,,,/muse/elements/blink
2021-11-02 20:17:54.655,,,,,,,,,,,,,,,,,,,,,,,,,,,,,,,,,,,,,,/muse/elements/blink
2021-11-02 20:17:55.266,,,,,,,,,,,,,,,,,,,,,,,,,,,,,,,,,,,,,,/muse/elements/blink
2021-11-02 20:17:55.280,0.1405644067498233,1.355856263302276,0,0.4256120842626917,0.07417250958442878,0.9034703398574075,0,0.6110886378729284,0.4338182637421285,0.7570256540731765,0,0.5931783534104291,0.6903615225435616,0.6041234683653581,0,1.018666507969476,0.5354694020779142,0.007887363427373553,0,0.9857237847803781,750.6593406593407,827.6190476190476,326.7765567765568,805.8608058608058,780.0732600732601,-0.077942,0.106689,0.991028,3.858032,-5.502930,-2.572021,1,1,1,2,1,100.000000
2021-11-02 20:17:56.271,0.1405644067498233,1.348907511494275,0,0.4256120842626917,0.07417250958442878,0.7358721103343772,0,0.6110886378729284,0.4338182637421285,0.676229050760472,0,0.5931783534104291,0.6903615225435616,0.5181648521194989,0,1.018666507969476,0.5354694020779142,0.2013916192655427,0,0.9857237847803781,764.3589743589744,791.3553113553114,69.3040293040293,836.0805860805862,780.8791208791209,-0.081299,0.102112,1.000854,5.233765,-4.740295,-2.422485,1,1,1,2,1,100.000000
2021-11-02 20:17:56.724,,,,,,,,,,,,,,,,,,,,,,,,,,,,,,,,,,,,,,/muse/elements/blink
2021-11-02 20:17:57.270,0.1405644067498233,0.9393374721545938,0,0.4256120842626917,0.07417250958442878,0.5510924247280318,0,0.6110886378729284,0.4338182637421285,0.2137139230365255,0,0.5931783534104291,0.6903615225435616,0.5597037851064193,0,1.018666507969476,0.5354694020779142,0.1938760155957992,0,0.9857237847803781,778.4615384615385,807.4725274725275,586.2637362637363,859.8534798534798,636.6300366300367,-0.070740,0.119385,1.003967,5.555267,-4.904785,-0.044861,1,2,1,2,2,100.000000
2021-11-02 20:17:58.271,1.774746369078926,0.8467272154577147,0,1.345158893628579,0.6545929327273741,0.5907179675122669,0,0.5747428094453769,0.6252305658505488,0.2301775818815689,0,0.6714551531894866,0.3799347347750339,0.6262982588789872,0,0.65819676258265,0.3760239842980367,0.1331634233612166,0,0.664484918658149,775.2380952380953,805.8608058608058,438.7912087912088,844.5421245421246,815.1282051282052,-0.097961,0.096802,1.007263,4.822540,-0.299072,-0.201874,1,1,1,2,1,100.000000
2021-11-02 20:17:59.260,,,,,,,,,,,,,,,,,,,,,,,,,,,,,,,,,,,,,,/muse/elements/blink
2021-11-02 20:17:59.272,1.591558212952022,0.374642409236735,0,1.417804885346,1.250282927890834,0.0008129529270508818,0,1.180847331354245,1.138206005220528,0.1330666697632251,0,1.071522078148221,0.5438165271648984,0.5480807460629861,0,0.8065848295009119,0.339085496345284,-0.01158983986359935,0,0.6925641304291794,824.3956043956044,811.0989010989011,483.1135531135531,804.6520146520147,686.996336996337,-0.139954,0.104980,0.987366,3.222504,-7.686157,-6.415100,1,1,1,2,1,100.000000
2021-11-02 20:17:59.965,,,,,,,,,,,,,,,,,,,,,,,,,,,,,,,,,,,,,,/muse/elements/blink
2021-11-02 20:18:00.271,1.405324291963216,1.274401928358035,0,1.477252679577664,1.541715979012388,0.8164634946732244,0,1.482860370239277,1.138206005220528,0.4948793129978345,0,1.052977617488343,0.7605315668984488,0.6657462600671286,0,0.9109535405298788,0.269204222391874,0.04724191818483226,0,0.6755203360484544,791.7582417582418,816.3369963369963,621.7216117216118,834.0659340659341,708.3516483516484,-0.131470,0.105896,0.993042,4.082336,-5.069275,-2.250519,1,1,1,2,1,100.000000
2021-11-02 20:18:01.271,1.405324291963216,1.230045745244023,0,1.477252679577664,1.541715979012388,0.9494123658995928,0,1.482860370239277,1.138206005220528,0.5054025731230206,0,1.052977617488343,0.7605315668984488,0.5920386355925578,0,0.9109535405298788,0.269204222391874,-0.07322396860707697,0,0.6755203360484544,716.4102564102565,826.8131868131868,761.941391941392,757.9120879120879,795.3846153846154,-0.133972,0.105896,0.999634,5.188904,-3.940277,-1.794434,1,1,1,2,1,100.000000
2021-11-02 20:18:01.365,,,,,,,,,,,,,,,,,,,,,,,,,,,,,,,,,,,,,,/muse/elements/blink
2021-11-02 20:18:02.271,1.405324291963216,0.806001188558629,0,1.477252679577664,1.541715979012388,0.5907069272890662,0,1.482860370239277,1.138206005220528,0.6642839920236681,0,1.052977617488343,0.7605315668984488,0.4469903812765685,0,0.9109535405298788,0.269204222391874,0.001958524911346006,0,0.6755203360484544,802.6373626373627,811.5018315018315,582.6373626373627,856.2271062271062,852.6007326007326,-0.144775,0.104004,0.990662,3.925323,-5.570221,-1.457977,1,2,1,2,2,100.000000
2021-11-02 20:18:03.270,0.3452144085296622,0.5287735405009195,0,0.3140147995939587,0.03452101211561233,0.3939885877905356,0,-0.1282963082975594,0.07695956455606318,0.6781502119362668,0,0.436237628874564,0.3618079780149828,0.4738929815152269,0,0.7924022965593158,0.04402545763228338,0.08874049439684414,0,0.3158083010720063,799.4139194139194,815.934065934066,665.2380952380953,854.6153846153846,743.8095238095239,-0.144104,0.106384,0.996643,4.433746,-4.912262,-1.914062,1,1,1,2,1,100.000000
2021-11-02 20:18:03.799,,,,,,,,,,,,,,,,,,,,,,,,,,,,,,,,,,,,,,/muse/elements/blink
2021-11-02 20:18:04.271,0.5393304416063208,0.8324370458520738,0,0.5529500440366542,-0.01731650364961107,0.6186904127598105,0,-0.03906891873241171,0.1217161463992757,0.391161882838279,0,0.3863787015258239,0.4549700794943063,0.4761867691230288,0,0.8737656012618726,-0.1894842602090756,-0.05239955435134879,0,0.3644058521604935,787.3260073260074,798.6080586080586,726.0805860805862,876.3736263736264,780.0732600732601,-0.142944,0.095276,0.994751,4.366455,-4.613190,-2.115936,1,1,1,2,1,100.000000
2021-11-02 20:18:05.026,,,,,,,,,,,,,,,,,,,,,,,,,,,,,,,,,,,,,,/muse/elements/blink
2021-11-02 20:18:05.271,0.4508148041160306,1.063881699956776,0,0.6793899227880635,-0.1010904915398509,0.7910311503632789,0,0.1139087810329214,0.4107788102197495,0.403908160611715,0,0.3840355179764001,0.3940493478589803,0.472116426615166,0,0.8177217547160232,-0.0308271467614612,-0.03706616677449424,0,0.6201532785067436,890.0732600732601,795.3846153846154,508.9010989010989,862.6739926739926,939.2307692307693,-0.151611,0.116699,1.019775,9.002075,6.901093,-5.323486,1,1,1,2,1,100.000000
2021-11-02 20:18:05.353,,,,,,,,,,,,,,,,,,,,,,,,,,,,,,,,,,,,,,/muse/elements/blink
2021-11-02 20:18:05.637,,,,,,,,,,,,,,,,,,,,,,,,,,,,,,,,,,,,,,/muse/elements/blink
2021-11-02 20:18:06.270,0.4508148041160306,1.750948787547149,0,0.6793899227880635,-0.1010904915398509,1.047524927793284,0,0.1139087810329214,0.4107788102197495,0.5455559107544086,0,0.3840355179764001,0.3940493478589803,0.497707868513292,0,0.8177217547160232,-0.0308271467614612,0.01523749287441025,0,0.6201532785067436,811.5018315018315,790.952380952381,1113.699633699634,855.0183150183151,833.6630036630037,-0.171936,0.124878,0.968262,5.839386,-8.426361,-6.033783,1,1,1,4,1,100.000000
2021-11-02 20:18:06.487,,,,,,,,,,,,,,,,,,,,,,,,,,,,,,,,,,,,,,/muse/elements/jaw_clench
2021-11-02 20:18:06.578,,,,,,,,,,,,,,,,,,,,,,,,,,,,,,,,,,,,,,/muse/elements/blink
2021-11-02 20:18:07.079,,,,,,,,,,,,,,,,,,,,,,,,,,,,,,,,,,,,,,/muse/elements/jaw_clench
2021-11-02 20:18:07.271,0.4508148041160306,1.645214213253921,0,0.6793899227880635,-0.1010904915398509,0.8471587695286608,0,0.1139087810329214,0.4107788102197495,0.5880060158823623,0,0.3840355179764001,0.3940493478589803,0.6040525840401151,0,0.8177217547160232,-0.0308271467614612,0.2075213237820062,0,0.6201532785067436,819.96336996337,809.4871794871796,1164.871794871795,864.6886446886447,822.7838827838829,-0.181213,0.211731,0.945007,-8.762817,-12.351685,-8.359070,1,2,1,4,2,100.000000
2021-11-02 20:18:07.796,,,,,,,,,,,,,,,,,,,,,,,,,,,,,,,,,,,,,,/muse/elements/jaw_clench
2021-11-02 20:18:08.271,0.4508148041160306,0.9603979624767528,0,1.253873318802823,-0.1010904915398509,0.6510393225821189,0,0.7033601194093605,0.4107788102197495,0.6010711538852701,0,0.2225806871400179,0.3940493478589803,0.5606633978718135,0,0.876410869748987,-0.0308271467614612,0.2316660055196259,0,0.8343929645226533,812.7106227106227,785.7142857142858,406.5567765567766,803.8461538461539,834.8717948717949,-0.208313,0.136169,0.989380,4.067383,-3.252411,4.388885,1,1,1,4,1,100.000000
2021-11-02 20:18:08.499,,,,,,,,,,,,,,,,,,,,,,,,,,,,,,,,,,,,,,/muse/elements/jaw_clench
2021-11-02 20:18:08.587,,,,,,,,,,,,,,,,,,,,,,,,,,,,,,,,,,,,,,/muse/elements/blink
2021-11-02 20:18:08.675,,,,,,,,,,,,,,,,,,,,,,,,,,,,,,,,,,,,,,/muse/elements/jaw_clench
2021-11-02 20:18:09.275,0.814076837506304,0.7268795642149826,0,1.155762623673997,0.4570518873161408,0.4244046916319204,0,0.7259713682767758,1.098242933295484,0.3901771494149694,0,0.2554796829659935,1.082385821099066,0.388463326812665,0,0.8996865995820177,0.9585367757562704,0.2243881204932597,0,0.8774579760290316,816.3369963369963,807.4725274725275,258.2783882783883,876.7765567765568,696.6666666666667,-0.288696,0.185852,0.950928,-0.433655,-13.331146,-5.502930,1,1,1,2,1,100.000000
2021-11-02 20:18:09.375,,,,,,,,,,,,,,,,,,,,,,,,,,,,,,,,,,,,,,/muse/elements/blink
2021-11-02 20:18:09.375,,,,,,,,,,,,,,,,,,,,,,,,,,,,,,,,,,,,,,/muse/elements/jaw_clench
2021-11-02 20:18:10.271,0.8261886323958159,1.124362526970001,0,1.053849560120489,0.4702172291770549,0.350140187042957,0,0.7587674791996759,1.092119924439846,0.2236206999460833,0,0.2428399453590377,1.091397924823529,0.4700570585795421,0,0.9504236040892703,0.9532683545702982,0.1421345131770201,0,0.9043493835017323,776.8498168498169,811.5018315018315,1158.021978021978,882.4175824175825,857.032967032967,-0.287048,0.115662,0.954773,5.158997,7.491760,-4.942169,1,1,1,2,1,100.000000
2021-11-02 20:18:11.271,0.8261886323958159,1.115468067384931,0,1.21678375901964,0.4702172291770549,-0.05301538992237548,0,0.4010631352028471,1.092119924439846,0.102295668183359,0,0.539881238453386,1.091397924823529,0.4722192006768112,0,0.7000616415355655,0.9532683545702982,0.1751121173771784,0,0.8764612447373393,759.92673992674,810.6959706959707,53.99267399267399,793.7728937728938,711.978021978022,-0.195618,0.017517,0.972168,4.478607,-16.733093,-0.859833,1,1,1,4,1,100.000000
2021-11-02 20:18:12.271,1.160707011905813,0.5396227184740041,0,1.078986378433985,0.5450729282165299,0.145450036430778,0,0.2675668218832786,0.5885343182117015,0.1775084328161076,0,0.3062658266131679,0.7878891551770421,0.5260762453460169,0,0.7522675950585318,0.5546800900185809,0.1314957479975972,0,0.8729723001346918,748.6446886446887,817.1428571428571,728.4981684981685,817.5457875457876,848.1684981684982,-0.200500,0.054077,0.992065,9.697418,-8.104858,-9.271240,1,1,1,2,1,100.000000
2021-11-02 20:18:12.563,,,,,,,,,,,,,,,,,,,,,,,,,,,,,,,,,,,,,,/muse/elements/blink
2021-11-02 20:18:13.271,1.230882643324383,1.641193428794517,0,0.3454421181244058,0.7190370094786211,1.121600466424054,0,0.1237356188244675,0.7384955513366884,0.6723723878430364,0,0.240502014872184,0.7624726109686781,0.6133982689582231,0,0.7593090551038011,0.5450897974161882,0.0278252888025937,0,0.8764226795434923,836.8864468864469,805.0549450549451,429.9267399267399,871.941391941392,819.5604395604396,-0.224243,0.113708,0.960022,4.044952,-4.665527,0.014954,1,1,1,4,1,100.000000
2021-11-02 20:18:13.376,,,,,,,,,,,,,,,,,,,,,,,,,,,,,,,,,,,,,,/muse/elements/blink
2021-11-02 20:18:13.554,,,,,,,,,,,,,,,,,,,,,,,,,,,,,,,,,,,,,,/muse/elements/blink
2021-11-02 20:18:13.971,,,,,,,,,,,,,,,,,,,,,,,,,,,,,,,,,,,,,,/muse/elements/blink
2021-11-02 20:18:14.271,1.352690150357344,1.719676812322487,0,0.2147676910070263,0.9024112660284833,1.160227903727923,0,0.1465011585041475,0.7276636296137295,0.8270926830793177,0,0.164248446778835,0.7233033718192344,0.4904256827168358,0,0.7249398221276114,0.5072639189184038,0.1126631800352541,0,0.8708562121873061,814.7252747252747,782.4908424908425,119.6703296703297,805.0549450549451,878.3882783882784,-0.372437,0.280823,0.955200,16.067657,2.153320,3.656158,1,1,1,4,1,100.000000
2021-11-02 20:18:14.585,,,,,,,,,,,,,,,,,,,,,,,,,,,,,,,,,,,,,,/muse/elements/jaw_clench
2021-11-02 20:18:14.784,,,,,,,,,,,,,,,,,,,,,,,,,,,,,,,,,,,,,,/muse/elements/jaw_clench
2021-11-02 20:18:15.280,1.352690150357344,0.1191129691300801,0,0.2147676910070263,0.9024112660284833,0.3102101580935688,0,0.1465011585041475,0.7276636296137295,0.04952626477854495,0,0.164248446778835,0.7233033718192344,0.3203092504713712,0,0.7249398221276114,0.5072639189184038,-0.008455256231673298,0,0.8708562121873061,790.5494505494506,806.6666666666667,619.7069597069598,858.6446886446887,763.1501831501831,-0.177612,0.187866,0.954163,-4.927216,-13.734894,-2.317810,1,2,1,4,2,100.000000
2021-11-02 20:18:15.904,,,,,,,,,,,,,,,,,,,,,,,,,,,,,,,,,,,,,,/muse/elements/jaw_clench
2021-11-02 20:18:16.082,,,,,,,,,,,,,,,,,,,,,,,,,,,,,,,,,,,,,,/muse/elements/jaw_clench
2021-11-02 20:18:16.271,1.098627640543399,0.01198554175610964,0,1.206358292704953,0.7565970289792746,0.1662433807855536,0,0.6500712121041909,1.129031080189858,0.2828576199797301,0,0.6875210647606974,1.081572004900357,0.4612019056543372,0,0.8792154205114648,0.8190073399177047,0.2223193931090393,0,0.9182308876584667,806.2637362637363,801.025641025641,499.6336996336996,819.1575091575091,810.2930402930403,-0.161011,0.107422,0.975891,8.426361,4.097290,-4.501038,1,1,1,4,1,100.000000
2021-11-02 20:18:16.324,,,,,,,,,,,,,,,,,,,,,,,,,,,,,,,,,,,,,,/muse/elements/jaw_clench
2021-11-02 20:18:17.270,0.9875960207745927,0.03619099189583567,0,1.185713987682135,0.673484130656459,-0.2661161572468387,0,0.6492910654403095,0.5339125785467623,0.04422587274676664,0,0.8674812045748792,0.9742502526807733,0.4941832377863684,0,0.8903590493159373,0.7410714947469444,0.2950316528046043,0,1.020652325803217,785.3113553113553,796.1904761904763,21.35531135531136,799.0109890109891,820.7692307692308,-0.152039,0.159058,1.003784,6.467438,-4.314117,-4.299164,1,1,1,2,1,100.000000
2021-11-02 20:18:18.271,1.740699315220883,0.5979606031550699,0,1.117563765628079,1.345890697304237,0.1200016119265579,0,0.5876727444146811,1.077851506759248,0.2032100381803825,0,1.145164790139764,0.8655860624025945,0.4845350034204852,0,1.150620517514243,0.5051349049388971,0.1333164860240998,0,1.144008785263066,785.7142857142858,801.8315018315019,582.2344322344322,792.5641025641025,752.2710622710623,-0.208801,0.161743,0.968628,7.865601,1.719666,-8.882446,1,1,1,4,1,100.000000
2021-11-02 20:18:19.271,1.414223698889758,0.5333561281805062,0,0.777941749885116,1.086256718206938,0.1804403466886915,0,0.1522332323806944,1.106295504737046,0.169764735500247,0,1.186400844354099,0.7402448115103747,0.452303960926682,0,1.195202471242073,0.7160082248771391,0.07857982201944928,0,1.153986731131296,796.996336996337,808.6813186813187,397.6923076923077,804.2490842490843,760.7326007326008,-0.221008,0.169800,0.965759,4.426270,-5.981445,-1.921539,1,1,1,2,1,100.000000
2021-11-02 20:18:20.271,0.1816008363553314,-0.262915461320084,0,0.5408789572816042,-0.02174454584222879,0.03439012726138695,0,-0.06569162912615306,0.5242870242856367,-0.06999550627218758,0,0.5708978188379992,0.5212697909747293,0.4335400793382687,0,0.9672622838370222,0.7304149235842295,0.04208614546298034,0,0.9254154628750935,774.4322344322345,782.893772893773,114.8351648351648,740.1831501831502,826.8131868131868,-0.214478,0.171875,0.972717,3.850555,-4.598236,-0.844879,1,1,1,2,1,100.000000
2021-11-02 20:18:21.207,,,,,,,,,,,,,,,,,,,,,,,,,,,,,,,,,,,,,,/muse/elements/blink
2021-11-02 20:18:21.271,0.8268633576818218,0.8842525681378841,0,0.9264006939711658,0.606827419965009,0.5016693142455053,0,0.5006607821671765,0.8605613609294708,0.2933552434721209,0,0.7454504727630309,0.5653795454941328,0.5231628788542988,0,0.8642454437660293,0.6355522214289517,0.156069802232223,0,0.7096912359650367,817.1428571428571,803.4432234432235,687.3992673992674,778.4615384615385,649.5238095238095,-0.188599,0.156738,0.980347,5.876770,-5.502930,-2.078552,1,1,1,2,1,100.000000
2021-11-02 20:18:21.894,,,,,,,,,,,,,,,,,,,,,,,,,,,,,,,,,,,,,,/muse/elements/jaw_clench
2021-11-02 20:18:22.279,1.249194492251053,1.669126436094764,0,1.415933317870942,1.035026659474364,1.161379324956776,0,0.9167194088361594,0.8435158320797457,0.8752924571455293,0,0.8378618866281383,0.6495497530954198,0.5251501278522421,0,0.9286597762215772,0.6982861972080285,0.3510356430984626,0,0.799712978780512,850.989010989011,809.0842490842491,1288.571428571429,715.6043956043957,792.967032967033,-0.208130,0.166687,0.966431,4.381409,-8.194580,-2.527161,1,1,1,2,1,100.000000
2021-11-02 20:18:22.596,,,,,,,,,,,,,,,,,,,,,,,,,,,,,,,,,,,,,,/muse/elements/jaw_clench
2021-11-02 20:18:22.707,,,,,,,,,,,,,,,,,,,,,,,,,,,,,,,,,,,,,,/muse/elements/blink
2021-11-02 20:18:23.271,1.249194492251053,1.399743144864963,0,1.023640526720256,1.035026659474364,1.022328470655492,0,0.9354820286157139,0.8435158320797457,0.7303682550334032,0,1.057992419219652,0.6495497530954198,0.4120471518328045,0,1.087058676576747,0.6982861972080285,0.3848549758130821,0,0.9792831124916805,773.2234432234433,782.0879120879121,755.4945054945055,734.5421245421246,915.8608058608058,-0.052979,0.164001,1.003845,4.725342,-9.637604,-4.067383,1,1,1,4,1,100.000000
2021-11-02 20:18:23.298,,,,,,,,,,,,,,,,,,,,,,,,,,,,,,,,,,,,,,/muse/elements/jaw_clench
2021-11-02 20:18:23.824,,,,,,,,,,,,,,,,,,,,,,,,,,,,,,,,,,,,,,/muse/elements/blink
2021-11-02 20:18:24.239,,,,,,,,,,,,,,,,,,,,,,,,,,,,,,,,,,,,,,/muse/elements/blink
2021-11-02 20:18:24.271,1.249194492251053,1.204787238991056,0,0.9866795296802907,1.035026659474364,0.8694112973332622,0,0.9713763851939146,0.8435158320797457,0.4814745738512999,0,1.054179970891005,0.6495497530954198,0.4722971135395526,0,1.065689041944223,0.6982861972080285,0.2962361969146349,0,0.918273666483948,846.1538461538462,783.2967032967033,586.6666666666666,781.2820512820513,626.959706959707,-0.060974,0.141663,1.008240,4.740295,-2.766418,-3.820648,1,1,1,2,1,100.000000
2021-11-02 20:18:25.271,1.249194492251053,1.229481510741717,0,0.9866795296802907,1.035026659474364,0.7697151561691115,0,0.9713763851939146,0.8435158320797457,0.3485344725150692,0,1.054179970891005,0.6495497530954198,0.3640695533030045,0,1.065689041944223,0.6982861972080285,0.1736223492231386,0,0.918273666483948,788.9377289377289,799.4139194139194,418.2417582417582,798.6080586080586,808.6813186813187,-0.086975,0.145996,1.000000,3.551483,-4.844971,-0.059814,1,1,1,4,1,100.000000
2021-11-02 20:18:26.280,1.003671618663538,0.5779976378241837,0,0.6923606776861115,0.6036504315330479,0.1822890188884377,0,0.7599108212755536,0.7096814580483244,0.4448073322212451,0,1.158400122033368,0.8107837661078605,0.3879427060331311,0,1.088271021219404,0.895619985930215,0.01660206009517657,0,1.118619695761122,641.0622710622711,833.6630036630037,144.2490842490843,543.5531135531136,653.956043956044,-0.102295,0.170105,0.994446,5.600128,-4.037476,-3.805695,1,1,1,2,1,100.000000
2021-11-02 20:18:26.442,,,,,,,,,,,,,,,,,,,,,,,,,,,,,,,,,,,,,,/muse/elements/blink
2021-11-02 20:18:27.272,1.06130616455132,0.9036846662943784,0,0.5692148558860407,0.5380221585509117,0.6981459376771068,0,0.7598795216484646,0.3735624975545965,0.6785226694946653,0,1.150360845787751,0.8806449366297242,0.4021907515354478,0,1.131508456095515,0.9856445913110499,-0.08634954087148267,0,1.07514816619598,734.1391941391942,828.8278388278388,12.49084249084249,702.3076923076924,645.4945054945055,-0.123474,0.171997,0.985474,5.592651,-4.157104,-0.411224,1,1,1,2,1,100.000000
2021-11-02 20:18:27.474,,,,,,,,,,,,,,,,,,,,,,,,,,,,,,,,,,,,,,/muse/elements/blink
2021-11-02 20:18:27.802,,,,,,,,,,,,,,,,,,,,,,,,,,,,,,,,,,,,,,/muse/elements/blink
2021-11-02 20:18:28.271,1.190595687059041,0.9778675226865159,0,0.4955611990460921,0.42299996916504,0.7824575837840101,0,0.7948385610624896,0.2983784589843034,0.602107718513175,0,1.130881318990543,0.8948516231313446,0.5327881343491822,0,1.120834600239772,1.040852708641106,0.1591172666870067,0,0.9978600075559929,899.3406593406594,785.3113553113553,74.13919413919415,887.2527472527473,676.9230769230769,-0.130615,0.155273,0.990601,4.680481,-5.248718,-1.181335,1,1,1,2,1,100.000000
2021-11-02 20:18:28.413,,,,,,,,,,,,,,,,,,,,,,,,,,,,,,,,,,,,,,/muse/elements/blink
2021-11-02 20:18:29.273,1.190595687059041,0.5201642006608544,0,0.4955611990460921,0.42299996916504,0.3977892986836974,0,0.7948385610624896,0.2983784589843034,0.2304771680349426,0,1.130881318990543,0.8948516231313446,0.423696275484135,0,1.120834600239772,1.040852708641106,0.1601856557547993,0,0.9978600075559929,800.6227106227107,787.7289377289378,19.34065934065934,746.6300366300367,636.2271062271062,-0.133850,0.159851,0.982422,4.777679,-4.643097,-2.175751,1,2,1,2,2,100.000000
2021-11-02 20:18:29.921,,,,,,,,,,,,,,,,,,,,,,,,,,,,,,,,,,,,,,/muse/elements/blink
2021-11-02 20:18:30.252,,,,,,,,,,,,,,,,,,,,,,,,,,,,,,,,,,,,,,/muse/elements/blink
2021-11-02 20:18:30.271,1.158399520491705,0.614316515032845,0,1.272130894207516,0.5701160389560576,0.1502483225008624,0,0.3584195966069951,0.8118591253976604,0.2669406182856445,0,0.6393070502784816,0.5978517440145652,0.3527480001286564,0,0.9146382513199642,0.2852225765391952,0.04952667233900093,0,0.5782209406673816,865.8974358974359,816.7399267399268,356.1904761904762,766.7765567765568,704.7252747252747,-0.162903,0.157410,0.986572,4.336548,-4.059906,-1.682281,1,1,1,2,1,100.000000
2021-11-02 20:18:30.848,,,,,,,,,,,,,,,,,,,,,,,,,,,,,,,,,,,,,,/muse/elements/blink
2021-11-02 20:18:31.278,1.158399520491705,1.067885412634934,0,1.272130894207516,0.5701160389560576,0.7790965396708265,0,0.3584195966069951,0.8118591253976604,1.059721676543864,0,0.6393070502784816,0.5978517440145652,0.5556424639208845,0,0.9146382513199642,0.2852225765391952,-0.07684845792453306,0,0.5782209406673816,820.7692307692308,791.7582417582418,228.4615384615385,724.0659340659341,708.3516483516484,-0.164124,0.153076,0.984253,4.695435,-5.031891,-1.502838,1,1,1,2,1,100.000000
2021-11-02 20:18:32.271,1.458520063646246,1.194629465106129,0,0.7183017453269923,0.8203718686169178,0.8533386139963755,0,0.309431923810327,0.8026312287286708,1.046208141798512,0,0.7309078555429714,0.2841753660348151,0.600327882742214,0,0.7768419756637854,0.2459425814797352,-0.1166512533066134,0,0.6406057638013185,840.9157509157509,801.8315018315019,32.23443223443223,729.3040293040293,805.8608058608058,-0.166992,0.157043,0.984436,4.246826,-5.271149,-2.325287,1,1,1,2,1,100.000000
2021-11-02 20:18:33.271,1.693286515269106,1.438853729231409,0,0.6706744955719846,0.8726836265928931,0.7544764571209833,0,0.4493293028311862,0.8384215639579997,0.5763715111960591,0,0.8188246687986854,0.3625894852910302,0.4207500179278417,0,0.6639008025531142,0.2410229795995016,-0.04532520441450417,0,0.6708812322569859,768.7912087912088,797.3992673992674,267.1428571428572,676.1172161172161,646.7032967032967,-0.154358,0.145508,1.029358,5.846863,-2.706604,-2.093506,1,1,1,2,1,100.000000
2021-11-02 20:18:34.275,1.808312825980539,1.096413881243584,0,0.9942160349210141,0.9965341065937274,0.5518784390903492,0,0.8328231535032745,0.9124019716667576,0.3257292062703718,0,1.078868188254225,0.5188824998672514,0.4675223617618596,0,0.6599464015270096,0.3620638136155251,-0.02714997095141376,0,0.6478242924964209,896.1172161172161,807.4725274725275,298.974358974359,776.4468864468864,697.0695970695971,-0.163635,0.107605,0.941772,2.220612,-1.345825,-3.529053,1,1,1,2,1,100.000000
2021-11-02 20:18:34.377,,,,,,,,,,,,,,,,,,,,,,,,,,,,,,,,,,,,,,/muse/elements/blink
2021-11-02 20:18:34.706,,,,,,,,,,,,,,,,,,,,,,,,,,,,,,,,,,,,,,/muse/elements/blink
2021-11-02 20:18:35.127,,,,,,,,,,,,,,,,,,,,,,,,,,,,,,,,,,,,,,/muse/elements/blink
2021-11-02 20:18:35.271,2.04501056118829,1.2127014418854,0,1.239266984857943,1.164160797228963,0.9754386255680421,0,1.107498774640182,0.886787757189157,0.7905832356831396,0,1.013077823874511,0.6307484905652394,0.4439776419713531,0,0.6688742482451976,0.5225856307652684,0.1446962673573089,0,0.6749852225992001,828.021978021978,792.5641025641025,17.32600732600732,689.4139194139194,595.5311355311355,-0.108276,0.107788,1.016235,3.177643,-9.727325,-1.024323,1,1,1,4,1,100.000000
2021-11-02 20:18:36.008,,,,,,,,,,,,,,,,,,,,,,,,,,,,,,,,,,,,,,/muse/elements/blink
2021-11-02 20:18:36.271,2.04501056118829,1.400962122306443,0,1.259896463207191,1.164160797228963,1.226381176184094,0,1.109918743971564,0.886787757189157,0.8393416139695566,0,0.9994807293621366,0.6307484905652394,0.4750041336859443,0,0.6655401861111643,0.5225856307652684,0.1433291082007977,0,0.6949021188264212,796.5934065934066,807.0695970695971,579.8168498168499,716.007326007326,572.967032967033,-0.257507,0.131042,0.974060,9.809570,14.901276,-5.158997,1,1,1,4,1,100.000000
2021-11-02 20:18:36.949,,,,,,,,,,,,,,,,,,,,,,,,,,,,,,,,,,,,,,/muse/elements/blink
2021-11-02 20:18:37.271,2.04501056118829,1.341017620692242,0,1.259896463207191,1.164160797228963,0.8755312454018351,0,1.109918743971564,0.886787757189157,0.6106149482437239,0,0.9994807293621366,0.6307484905652394,0.5028765917425738,0,0.6655401861111643,0.5225856307652684,0.1974606254432514,0,0.6949021188264212,701.9047619047619,815.1282051282052,397.2893772893773,624.5421245421246,648.7179487179487,-0.415527,0.080139,0.996399,8.516083,-74.282074,14.093781,1,2,1,4,2,100.000000
2021-11-02 20:18:37.410,,,,,,,,,,,,,,,,,,,,,,,,,,,,,,,,,,,,,,/muse/elements/blink
2021-11-02 20:18:38.273,2.04501056118829,1.654742113598179,0,1.259896463207191,1.164160797228963,1.228391232883515,0,1.109918743971564,0.886787757189157,0.6442705379029428,0,0.9994807293621366,0.6307484905652394,0.5618238961866426,0,0.6655401861111643,0.5225856307652684,0.3216151585799689,0,0.6949021188264212,782.4908424908425,793.7728937728938,0,725.6776556776557,674.9084249084249,-0.011658,0.084778,1.043884,1.540222,-8.052521,0.007477,1,2,1,2,2,100.000000
2021-11-02 20:18:39.271,0.9407925945153579,0.8893595668488334,0,0.7659531641092403,0.5024964957374163,0.656054316373649,0,0.03749248962083458,0.4692324481948521,0.4470687528275415,0,0.5439173837270086,0.6868667023956535,0.3675009795978185,0,0.8318409870720141,0.4609408211901253,0.1364046905381207,0,0.6613732672928067,766.7765567765568,801.8315018315019,0,735.3479853479854,724.0659340659341,-0.008301,0.058838,1.006653,5.659943,-3.491669,-1.929016,1,1,1,2,1,100.000000
2021-11-02 20:18:40.272,1.207354495467563,-0.3068036568946461,0,1.182539110359076,0.8144252378877954,-0.2598000378876315,0,0.5011878414225808,0.7833583531203548,0.1464920415286099,0,0.865325508036303,0.5928351543444573,0.4234482013167307,0,0.773225435509485,0.2951219441288353,-0.1088853919125644,0,0.6308995139449748,772.8205128205128,787.7289377289378,453.2967032967033,730.5128205128206,646.3003663003664,-0.084778,0.079224,1.000305,15.454559,-1.472931,-3.962708,1,1,1,2,1,100.000000
2021-11-02 20:18:41.271,1.088883709131083,0.3152763908827608,0,0.8331000330953148,0.563087812309313,-0.1812979676300062,0,0.6410751858605703,0.7573187354844055,0.02064351396421343,0,0.9762040073578963,0.5258262202132401,0.2764945177936608,0,0.6668637920020881,0.3320998299300605,-0.02332315902897626,0,0.7740877385586341,809.4871794871796,794.5787545787546,207.1062271062271,751.4652014652015,779.2673992673992,-0.059204,0.070679,1.008118,4.673004,-3.573914,-3.820648,1,1,1,2,1,100.000000
2021-11-02 20:18:42.271,0.9605720559822345,0.4838497575088093,0,0.8102746048766117,0.09610143867750545,0.03020457913356471,0,0.1580968490585889,0.460235867362817,0.1236239978301958,0,0.7526868237436155,0.5950922232859897,0.3438770407507353,0,0.6926808081219684,0.3301770360078964,-0.2206236379906219,0,0.6895387036707538,812.3076923076924,805.4578754578755,527.032967032967,726.8864468864469,703.919413919414,-0.066284,0.088135,1.006287,4.164581,-4.523468,-2.123413,1,1,1,2,1,100.000000
