TimeStamp,Delta_TP9,Delta_AF7,Delta_AF8,Delta_TP10,Theta_TP9,Theta_AF7,Theta_AF8,Theta_TP10,Alpha_TP9,Alpha_AF7,Alpha_AF8,Alpha_TP10,Beta_TP9,Beta_AF7,Beta_AF8,Beta_TP10,Gamma_TP9,Gamma_AF7,Gamma_AF8,Gamma_TP10,RAW_TP9,RAW_AF7,RAW_AF8,RAW_TP10,AUX_RIGHT,Accelerometer_X,Accelerometer_Y,Accelerometer_Z,Gyro_X,Gyro_Y,Gyro_Z,HeadBandOn,HSI_TP9,HSI_AF7,HSI_AF8,HSI_TP10,Battery,Elements
2021-11-27 18:52:22.554,0.8717647538960392,1.382207660510926,0.3211170189763459,0,0.8775556326391588,0.2575756735796465,0.2264018660994634,0,0.2073615952060743,0.5629116964244095,0.4425686690498215,0,0.6503896684600944,0.09979036241690825,0.06659001022646283,0,0.138668899045202,-0.5501706962322768,-0.3385608623413431,0,794.5787545787546,799.4139194139194,775.6410256410256,783.6996336996338,599.1575091575091,0.020752,-0.072693,1.007568,-0.762634,-7.110443,-2.609406,1,2,1,1,2,35.000000
2021-11-27 18:52:23.104,,,,,,,,,,,,,,,,,,,,,,,,,,,,,,,,,,,,,,/muse/elements/blink
2021-11-27 18:52:23.554,0.8717647538960392,1.502321769430519,1.10815151582745,0,0.8775556326391588,1.07746038467198,0.8063282772683976,0,0.2073615952060743,0.5750664718604956,0.4026261747912958,0,0.6503896684600944,-0.02709734027319704,0.107106394029692,0,0.138668899045202,-0.4958662334796706,-0.297589200718561,0,818.7545787545788,783.2967032967033,763.956043956044,775.2380952380953,764.3589743589744,0.000732,-0.091187,1.001953,7.282410,-5.226288,-2.190704,1,2,1,1,2,35.000000
2021-11-27 18:52:24.153,,,,,,,,,,,,,,,,,,,,,,,,,,,,,,,,,,,,,,/muse/elements/blink
2021-11-27 18:52:24.553,0.8717647538960392,1.650371016256653,1.355640013592962,0,0.8775556326391588,1.264574710676101,1.029172909078598,0,0.2073615952060743,0.7936032519201608,0.4160658393982736,0,0.6503896684600944,-0.01653047696516661,0.116153231890194,0,0.138668899045202,-0.3409429752169967,-0.3229965991917372,0,940.4395604395605,810.6959706959707,743.8095238095239,879.1941391941392,606.8131868131868,-0.015503,-0.093506,1.011963,6.273041,-4.874878,-0.082245,1,2,1,1,2,35.000000
2021-11-27 18:52:24.672,,,,,,,,,,,,,,,,,,,,,,,,,,,,,,,,,,,,,,/muse/elements/blink
2021-11-27 18:52:25.556,0.8717647538960392,1.400394700606966,1.162530891540838,0,0.8775556326391588,0.9819958436962692,0.1078765047613577,0,0.2073615952060743,0.8264474342760852,0.008788873535825406,0,0.6503896684600944,-0.06730469575421541,0.2021632119182406,0,0.138668899045202,-0.3762090339725217,-0.08834192801233026,0,824.7985347985348,790.952380952381,773.6263736263736,774.8351648351648,709.1575091575091,-0.013916,-0.104309,1.002258,8.074951,3.117828,7.716064,1,2,1,1,2,35.000000
2021-11-27 18:52:26.072,,,,,,,,,,,,,,,,,,,,,,,,,,,,,,,,,,,,,,/muse/elements/blink
2021-11-27 18:52:26.554,0.8717647538960392,1.269810443746027,1.609078132531756,0,0.8775556326391588,0.5870266249267531,0.7339667448463121,0,0.2073615952060743,0.660595113000537,0.3519083246722745,0,0.6503896684600944,0.04147404211840756,0.164969834183933,0,0.138668899045202,-0.4227454554672066,-0.2981162887072534,0,919.0842490842491,793.3699633699634,776.0439560439561,688.2051282051282,28.60805860805861,0.109558,-0.012207,1.007751,10.863800,-22.662201,5.667419,1,2,1,1,2,35.000000
2021-11-27 18:52:26.689,,,,,,,,,,,,,,,,,,,,,,,,,,,,,,,,,,,,,,/muse/elements/blink
2021-11-27 18:52:27.553,0.8717647538960392,1.342288745035779,1.707093326448707,0,0.8775556326391588,0.7471567307331334,1.005307397546578,0,0.2073615952060743,0.7263047020312824,0.3955978631085873,0,0.6503896684600944,-0.05163097712320036,0.2250334638175221,0,0.138668899045202,-0.3249559664273468,-0.3915261131488105,0,825.2014652014652,785.7142857142858,774.0293040293041,858.2417582417582,717.2161172161173,-0.022034,0.001892,1.015259,1.749573,-5.689850,3.439331,1,2,1,1,2,35.000000
2021-11-27 18:52:27.815,,,,,,,,,,,,,,,,,,,,,,,,,,,,,,,,,,,,,,/muse/elements/blink
2021-11-27 18:52:28.323,,,,,,,,,,,,,,,,,,,,,,,,,,,,,,,,,,,,,,/muse/elements/blink
2021-11-27 18:52:28.554,0.8717647538960392,1.495056343899794,1.35623625949337,0,0.8775556326391588,1.156717459945404,1.078160149630794,0,0.2073615952060743,0.6454399155595899,0.8926137610769703,0,0.6503896684600944,-0.2110874808572607,0.2408276947495451,0,0.138668899045202,-0.3319776763521704,-0.1580292560384895,0,879.5970695970697,774.8351648351648,775.2380952380953,712.3809523809524,337.6556776556777,0.018738,-0.029602,1.004150,12.733002,1.644897,7.454376,1,2,1,1,2,35.000000
2021-11-27 18:52:29.116,,,,,,,,,,,,,,,,,,,,,,,,,,,,,,,,,,,,,,/muse/elements/blink
2021-11-27 18:52:29.555,0.8717647538960392,1.800161782386801,1.627873310933482,0,0.8775556326391588,1.421475390696873,1.141314731272771,0,0.2073615952060743,0.3324541416011309,0.9595694869647494,0,0.6503896684600944,-0.2742012121425904,0.4034559053809608,0,0.138668899045202,-0.2600208716675751,0.5441726720486642,0,825.6043956043957,796.5934065934066,785.3113553113553,738.974358974359,433.956043956044,0.038208,0.006226,1.017883,-3.499146,-16.426544,-8.994598,1,2,1,1,2,35.000000
2021-11-27 18:52:30.056,,,,,,,,,,,,,,,,,,,,,,,,,,,,,,,,,,,,,,/muse/elements/blink
2021-11-27 18:52:30.338,,,,,,,,,,,,,,,,,,,,,,,,,,,,,,,,,,,,,,/muse/elements/blink
2021-11-27 18:52:30.554,0.8717647538960392,1.079968467926544,1.302552828251805,0,0.8775556326391588,0.3068080065408239,0.8156109759732445,0,0.2073615952060743,0.5685985307417322,0.9508532235707413,0,0.6503896684600944,0.624704824038078,0.5567846714860902,0,0.138668899045202,0.4576057994904355,0.5447708570409315,0,791.7582417582418,776.4468864468864,786.5201465201466,616.8864468864469,82.6007326007326,0.143066,-0.091003,0.969788,1.256104,-9.622650,-1.764526,1,2,1,1,2,35.000000
2021-11-27 18:52:30.667,,,,,,,,,,,,,,,,,,,,,,,,,,,,,,,,,,,,,,/muse/elements/blink
2021-11-27 18:52:31.084,,,,,,,,,,,,,,,,,,,,,,,,,,,,,,,,,,,,,,/muse/elements/blink
2021-11-27 18:52:31.459,,,,,,,,,,,,,,,,,,,,,,,,,,,,,,,,,,,,,,/muse/elements/blink
2021-11-27 18:52:31.558,0.8717647538960392,0.8444622356870358,0.5733517501604132,0,0.8775556326391588,0.8532055901645441,0.5051174235090108,0,0.2073615952060743,0.4879955739248888,0.7694153281965743,0,0.6503896684600944,0.406986915054209,0.2966782013640058,0,0.138668899045202,0.1498512150714899,-0.2297090874429626,0,684.1758241758242,861.8681318681319,793.3699633699634,774.8351648351648,810.6959706959707,0.265442,0.036621,0.982361,3.940277,-8.179626,-3.192596,1,2,1,1,2,35.000000
2021-11-27 18:52:32.400,,,,,,,,,,,,,,,,,,,,,,,,,,,,,,,,,,,,,,/muse/elements/blink
2021-11-27 18:52:32.554,0.8717647538960392,0.9815434528493741,0.9998627389351901,0,0.8775556326391588,0.8088043238077069,0.9437915296473971,0,0.2073615952060743,0.0882461693352091,0.9568019208055101,0,0.6503896684600944,0.1030999945325695,0.3190048773113196,0,0.138668899045202,-0.2568882643883577,-0.3072336951237951,0,819.1575091575091,862.2710622710623,761.1355311355312,487.948717948718,0,0.222168,-0.151611,0.967529,-7.117920,0.014954,1.487885,1,2,1,1,2,35.000000
2021-11-27 18:52:32.599,,,,,,,,,,,,,,,,,,,,,,,,,,,,,,,,,,,,,,/muse/elements/blink
2021-11-27 18:52:33.553,0.8717647538960392,0.9815434528493741,1.210492226924452,0,0.8775556326391588,0.8088043238077069,1.126329881638658,0,0.2073615952060743,0.0882461693352091,0.9568019208055101,0,0.6503896684600944,0.1030999945325695,0.3070798156735289,0,0.138668899045202,-0.2568882643883577,-0.2554096904653171,0,810.2930402930403,730.9157509157509,804.6520146520147,318.3150183150183,0,0.256531,-0.086182,0.999023,7.200165,-5.286102,1.637421,1,2,1,1,2,35.000000
2021-11-27 18:52:33.600,,,,,,,,,,,,,,,,,,,,,,,,,,,,,,,,,,,,,,/muse/elements/blink
2021-11-27 18:52:34.559,0.8717647538960392,0.9815434528493741,1.210492226924452,0,0.8775556326391588,0.8088043238077069,1.126329881638658,0,0.2073615952060743,0.0882461693352091,0.9568019208055101,0,0.6503896684600944,0.1030999945325695,0.3070798156735289,0,0.138668899045202,-0.2568882643883577,-0.2554096904653171,0,786.5201465201466,783.6996336996338,784.1025641025641,458.1318681318681,0,0.238892,-0.080261,0.986023,4.643097,-4.149628,-1.345825,1,2,1,1,2,35.000000
2021-11-27 18:52:34.940,,,,,,,,,,,,,,,,,,,,,,,,,,,,,,,,,,,,,,/muse/elements/blink
2021-11-27 18:52:35.553,0.8717647538960392,0.9815434528493741,1.633553981279256,0,0.8775556326391588,0.8088043238077069,1.180049775392066,0,0.2073615952060743,0.0882461693352091,0.4274801184941298,0,0.6503896684600944,0.1030999945325695,0.1485131791636583,0,0.138668899045202,-0.2568882643883577,0.01914088802904833,0,834.4688644688645,781.6849816849817,783.6996336996338,559.6703296703297,0,0.254944,-0.074280,0.981506,9.495544,-6.714172,5.779572,1,2,1,1,2,35.000000
2021-11-27 18:52:35.928,,,,,,,,,,,,,,,,,,,,,,,,,,,,,,,,,,,,,,/muse/elements/blink
2021-11-27 18:52:36.553,0.8717647538960392,1.572508138335891,1.382327545018794,0,0.8775556326391588,1.414111893229194,1.08521737404414,0,0.2073615952060743,1.032595235422277,0.6287941673157638,0,0.6503896684600944,0.3656028324754642,0.2071261590175225,0,0.138668899045202,0.05084641491615215,-0.1011048573806591,0,824.3956043956044,824.7985347985348,740.989010989011,645.8974358974359,261.0989010989011,0.220520,-0.070068,0.987366,4.209442,-4.119720,-2.669220,1,2,1,1,2,35.000000
2021-11-27 18:52:37.271,,,,,,,,,,,,,,,,,,,,,,,,,,,,,,,,,,,,,,/muse/elements/blink
2021-11-27 18:52:37.553,1.049061454316305,1.447810773806584,1.247040230750687,0,0.8875082945370486,1.234410437770924,0.9845775819232342,0,0.9285518953933091,1.056840023101972,0.7699645701405237,0,0.5734778198991386,0.3236394705629568,0.2206303463146396,0,0.04660847070904192,0.0972510031582373,-0.1936036217949968,0,809.8901098901099,775.2380952380953,779.2673992673992,697.4725274725275,337.6556776556777,0.219727,-0.070496,0.986450,5.203857,-5.016937,-1.084137,1,1,1,1,1,35.000000
2021-11-27 18:52:38.069,,,,,,,,,,,,,,,,,,,,,,,,,,,,,,,,,,,,,,/muse/elements/blink
2021-11-27 18:52:38.553,1.049061454316305,1.699642019511198,1.577255450272502,0,0.8875082945370486,1.396933767603664,1.207285508385859,0,0.9285518953933091,0.8358034230931325,0.8659544287563388,0,0.5734778198991386,0.1337554057414723,0.05482492946587229,0,0.04660847070904192,-0.08407404481529522,-0.3564104270095865,0,745.8241758241759,808.2783882783883,822.7838827838829,666.8498168498169,555.6410256410256,0.217407,-0.083740,0.980591,3.663635,-4.650574,-4.209442,1,1,1,1,1,35.000000
2021-11-27 18:52:38.778,,,,,,,,,,,,,,,,,,,,,,,,,,,,,,,,,,,,,,/muse/elements/blink
2021-11-27 18:52:39.553,1.049061454316305,1.508062481547876,1.785318684518819,0,0.8875082945370486,1.245409494797382,1.36665887945426,0,0.9285518953933091,0.711966812565532,0.8077377163172832,0,0.5734778198991386,-0.04223131498482541,-0.01029343109870025,0,0.04660847070904192,-0.396562698066729,-0.3784625230598703,0,722.4542124542124,817.948717948718,820.7692307692308,663.6263736263736,614.4688644688645,0.202271,-0.097717,0.983765,4.530945,-5.218811,-2.609406,1,1,1,1,1,35.000000
2021-11-27 18:52:39.796,,,,,,,,,,,,,,,,,,,,,,,,,,,,,,,,,,,,,,/muse/elements/blink
2021-11-27 18:52:40.415,,,,,,,,,,,,,,,,,,,,,,,,,,,,,,,,,,,,,,/muse/elements/blink
2021-11-27 18:52:40.553,1.049061454316305,1.299809730564055,1.550714564148732,0,0.8875082945370486,1.017729796030108,1.209644459958624,0,0.9285518953933091,0.8365005356856345,0.83701767359978,0,0.5734778198991386,0.09102646826586552,0.05215079992459742,0,0.04660847070904192,-0.4732951338906967,-0.3853459125044985,0,821.978021978022,780.0732600732601,784.9084249084249,760.3296703296703,669.2673992673992,0.222107,-0.101379,0.972839,4.545898,-6.086121,-1.487885,1,2,1,1,2,35.000000
2021-11-27 18:52:41.207,,,,,,,,,,,,,,,,,,,,,,,,,,,,,,,,,,,,,,/muse/elements/blink
2021-11-27 18:52:41.553,1.049061454316305,1.511048368089137,1.691533132426825,0,0.8875082945370486,1.275098687140632,1.351476747542321,0,0.9285518953933091,1.078900907705563,1.074635997124505,0,0.5734778198991386,0.1563248160948737,0.1467907985762079,0,0.04660847070904192,-0.3071641627577317,-0.3240123480804079,0,800.2197802197802,781.6849816849817,787.3260073260074,771.2087912087912,623.7362637362637,0.217163,-0.095947,0.983582,6.205750,-4.830017,-1.069183,1,2,1,1,2,35.000000
2021-11-27 18:52:42.553,1.130897217694068,1.308811265234626,1.480632232043423,0.5675150624069859,0.5934139976433002,0.9802147867442373,1.069965164290047,0.2388124172527036,0.8941406805823071,1.026192192695,1.070068858772188,0.9359550777945196,0.5357428821021095,0.2731596750074166,0.1084023351934086,0.7306778205149288,0.06836440535562796,-0.4259576449687033,-0.2765257337566167,0.2299800266931217,797.3992673992674,784.1025641025641,784.5054945054945,749.4505494505495,633.0036630036631,0.219421,-0.087769,0.995850,3.431854,-5.016937,-2.773895,1,1,1,1,1,35.000000
2021-11-27 18:52:42.840,,,,,,,,,,,,,,,,,,,,,,,,,,,,,,,,,,,,,,/muse/elements/blink
2021-11-27 18:52:43.557,1.167283243931223,1.221222470791244,1.156563204480763,0.7820845781467117,0.6071898767516034,1.03102818563401,0.6923681669423907,0.3686428400145648,0.9146030556694421,0.7876732302087837,0.5209490074466395,0.9392828676002558,0.5689891286858795,0.2744737414357473,0.07877325989269021,0.7272186821388149,0.04507975322271268,-0.4616999977092818,-0.349172015043024,0.2146803228510832,719.2307692307693,847.7655677655678,804.6520146520147,737.3626373626374,668.8644688644689,0.147827,-0.109680,0.999756,6.287994,-8.448792,-3.730927,1,1,1,1,1,35.000000
2021-11-27 18:52:43.731,,,,,,,,,,,,,,,,,,,,,,,,,,,,,,,,,,,,,,/muse/elements/blink
2021-11-27 18:52:44.460,,,,,,,,,,,,,,,,,,,,,,,,,,,,,,,,,,,,,,/muse/elements/blink
2021-11-27 18:52:44.555,1.269814875899611,1.519420323508757,0.9365295978575305,0.9567469264967714,0.6770910469854972,1.266917711519169,0.5825918172105965,0.4612877133989661,0.8011696205843378,0.8228894195076747,0.6428955971048166,0.8886998655334596,0.6586718977299343,0.1023183941182792,0.08539592255775919,0.7850355136671181,0.04300868151627288,-0.3704465630206611,-0.4310555378533754,0.2350684148901944,840.9157509157509,780.4761904761905,796.996336996337,789.3406593406594,835.2747252747253,0.144470,-0.105713,1.001770,3.910370,-3.798218,0.007477,1,1,1,1,1,35.000000
2021-11-27 18:52:45.552,1.269814875899611,1.439610589119725,0.5414051902988085,0.9567469264967714,0.6770910469854972,1.177554123080356,0.2326857556662477,0.4612877133989661,0.8011696205843378,0.8821132773165541,0.4566900088168198,0.8886998655334596,0.6586718977299343,0.02397308102054204,0.08741878687380013,0.7850355136671181,0.04300868151627288,-0.4050179910301287,-0.364593150028166,0.2350684148901944,786.1172161172161,782.893772893773,794.981684981685,779.2673992673992,794.1758241758242,0.081299,-0.148987,0.994751,4.598236,-6.594543,-6.228180,1,2,1,1,2,35.000000
2021-11-27 18:52:46.002,,,,,,,,,,,,,,,,,,,,,,,,,,,,,,,,,,,,,,/muse/elements/blink
2021-11-27 18:52:46.553,1.269814875899611,1.264399174215743,0.7237587958664615,1.005619771157124,0.6770910469854972,0.8104262371784048,0.2258559769973275,0.9222523656608087,0.8011696205843378,0.4010459024109929,0.05199760729215829,0.8973889993647961,0.6586718977299343,-0.01370272951613987,0.163343345901467,0.9437142847986192,0.04300868151627288,-0.3399309786362067,-0.3806103478369635,0.5146533065470719,807.4725274725275,830.4395604395604,750.2564102564103,745.8241758241759,792.967032967033,0.101074,-0.125610,0.993530,5.241241,-5.959015,-2.392578,1,1,1,1,1,35.000000
2021-11-27 18:52:47.311,,,,,,,,,,,,,,,,,,,,,,,,,,,,,,,,,,,,,,/muse/elements/blink
2021-11-27 18:52:47.552,0.9478570917466135,1.483224642075631,1.164492138839992,1.029585934541719,0.9478190382119557,0.9781254726863498,0.5946121116358415,1.078014193729307,0.9559703616537454,0.6261102888585551,0.3506331248496001,1.144561979183566,0.663349566651412,0.1593318490101079,0.1906460427491755,0.784410761344242,0.1242907865532722,-0.3127457130668118,-0.3119837181969661,0.3601664275763579,793.7728937728938,783.6996336996338,788.9377289377289,752.2710622710623,707.1428571428571,0.125488,-0.099182,1.004883,6.489868,-3.461761,2.048645,1,1,1,1,1,35.000000
2021-11-27 18:52:48.441,,,,,,,,,,,,,,,,,,,,,,,,,,,,,,,,,,,,,,/muse/elements/blink
2021-11-27 18:52:48.552,0.9478570917466135,1.366273810730256,0.8577297328250111,1.029585934541719,0.9478190382119557,0.9041237852715014,0.6055329631475981,1.078014193729307,0.9559703616537454,0.6559315195015654,0.5024288712433747,1.144561979183566,0.663349566651412,0.09332622551696337,0.06129513298675564,0.784410761344242,0.1242907865532722,-0.3238609184229361,-0.1734053246344109,0.3601664275763579,804.2490842490843,790.5494505494506,790.5494505494506,771.6117216117216,709.5604395604396,0.116882,-0.114258,1.005554,3.297272,-4.538422,-2.295380,1,1,1,1,1,35.000000
2021-11-27 18:52:49.557,0.9478570917466135,1.217483663762413,0.5691922291834483,1.029585934541719,0.9478190382119557,0.952586019670985,0.5337786259611916,1.078014193729307,0.9559703616537454,0.6685885106106669,0.2655555883554502,1.144561979183566,0.663349566651412,0.1357352894915408,0.07555954503110617,0.784410761344242,0.1242907865532722,-0.3933528876327189,-0.2979845759082039,0.3601664275763579,790.952380952381,792.5641025641025,791.3553113553114,774.4322344322345,778.8644688644689,0.124756,-0.106201,1.000671,3.902893,-5.413208,-3.506622,1,1,1,1,1,35.000000
2021-11-27 18:52:50.525,,,,,,,,,,,,,,,,,,,,,,,,,,,,,,,,,,,,,,/muse/elements/blink
2021-11-27 18:52:50.553,0.7982421664337376,1.010061709512942,0.882185545856878,0.7787865407671521,0.386944374480726,0.5562527667228406,0.4180910165978018,0.2487006360048273,0.7133341215545043,0.6112658177568822,0.3911771851398474,0.8628184939722213,0.5545588147597134,0.1680231725064151,0.03471824311301695,0.5426407610348749,0.1441799402777394,-0.3422664943885496,-0.2863666855189072,0.5076852979468722,811.5018315018315,777.6556776556777,785.7142857142858,783.2967032967033,650.3296703296703,0.158325,-0.101196,0.997620,6.796417,-7.708588,-1.286011,1,1,1,1,1,35.000000
2021-11-27 18:52:51.487,,,,,,,,,,,,,,,,,,,,,,,,,,,,,,,,,,,,,,/muse/elements/blink
2021-11-27 18:52:51.552,0.8618833190213557,1.38989582021196,1.035929696353714,0.2815173710389517,0.3766111494393739,1.193835419848585,0.587531289170351,0.2392566713492743,0.5735051335226197,0.8942593622344638,0.5221321207439819,0.7848671296679337,0.4501455891001719,0.1385397230136514,0.05570043297899015,0.5837311708818097,-0.004723846998619743,-0.3121182946834402,-0.224848496448373,0.2739097390994305,798.2051282051282,789.7435897435897,792.5641025641025,807.4725274725275,655.1648351648352,0.149902,-0.105957,1.009949,0.515900,-3.304749,-1.076660,1,1,1,1,1,35.000000
2021-11-27 18:52:52.557,0.8750798645372784,1.116638600270359,0.8455267683638376,0.2815173710389517,0.3551066354377267,1.190413441900379,0.5932157261491748,0.2392566713492743,0.4950947116725984,1.012288609476962,0.616545768004069,0.7848671296679337,0.4050849993712814,0.2432587837429007,0.1195157171241692,0.5837311708818097,-0.03463508364608855,-0.3603344678138617,-0.2032364257656704,0.2739097390994305,788.9377289377289,793.3699633699634,789.3406593406594,772.8205128205128,617.6923076923077,0.133545,-0.098083,1.006653,6.078644,-4.381409,-4.358978,1,1,1,1,1,35.000000
2021-11-27 18:52:53.390,,,,,,,,,,,,,,,,,,,,,,,,,,,,,,,,,,,,,,/muse/elements/blink
2021-11-27 18:52:53.552,0.8274288994380793,1.133995287097081,0.9808995169018659,0.9003743212830431,0.3689982918143599,0.7811949113731014,0.4930611705103988,0.7241994406275188,0.6827400574206575,0.6532734963761981,0.4597302542600064,0.7209625155895665,0.3449678897004743,0.126328098653702,0.09610632025387367,0.5228101976389788,0.2121599002549517,-0.4799246993705684,-0.4123221627255066,0.1738282728573554,798.6080586080586,777.2527472527473,791.7582417582418,780.0732600732601,663.6263736263736,0.129272,-0.106323,0.998352,5.031891,-5.039368,-6.706696,1,1,1,1,1,35.000000
2021-11-27 18:52:54.553,1.007867429537546,1.392703868542873,0.9556500259931335,0.6478119719305334,0.7320601064788319,1.102347190830771,0.4670388696918277,0.3327305040926774,0.627915217620265,0.7091756686589513,0.4044017412773466,0.5595584687104889,0.3561722308765771,0.1674116305603014,0.1197176359555781,0.493458696865433,0.08644808282285008,-0.4208564904219512,-0.5169237511765594,0.3345040774250417,794.981684981685,797.8021978021978,801.025641025641,772.014652014652,724.0659340659341,0.115784,-0.094543,1.001831,4.336548,-5.420685,1.734619,1,1,1,1,1,35.000000
2021-11-27 18:52:54.725,,,,,,,,,,,,,,,,,,,,,,,,,,,,,,,,,,,,,,/muse/elements/blink
2021-11-27 18:52:55.556,1.427009151625501,0.9800200776217072,0.3334021252754439,0.8209940903699338,1.225664082452044,0.7852776714572761,0.4953087047138411,0.6213586615232261,1.341883587338108,0.5772061900054462,0.6125482527128554,0.7995560994444367,0.364838513981174,0.2512718010082577,0.02136899335522185,0.4429095001770795,-0.03340337205054903,-0.340596726452481,-0.4688094220886259,0.2633267783409734,798.6080586080586,799.0109890109891,792.5641025641025,784.5054945054945,858.6446886446887,0.119934,-0.085205,1.008667,6.594543,-4.216919,2.474823,1,1,1,1,1,35.000000
2021-11-27 18:52:56.440,,,,,,,,,,,,,,,,,,,,,,,,,,,,,,,,,,,,,,/muse/elements/blink
2021-11-27 18:52:56.565,1.14511748731523,1.111454233331194,0.7223124619967101,0.7395609603519377,0.8953980967573562,0.8884165680986282,0.5490108190043812,0.6579272513970676,1.188316835523898,0.7819710628789727,0.6022685105792459,1.094779908190744,0.2221987881613929,0.2795895029682274,0.07553019993996189,0.6287051402671447,0.1033299064671832,-0.2710623562126489,-0.3232172323271533,0.1685743131457114,801.025641025641,788.1318681318681,794.1758241758242,784.9084249084249,713.1868131868132,0.157959,-0.068909,0.982361,3.813171,-7.394562,-5.585175,1,1,1,1,1,35.000000
2021-11-27 18:52:57.400,,,,,,,,,,,,,,,,,,,,,,,,,,,,,,,,,,,,,,/muse/elements/blink
2021-11-27 18:52:57.553,0.6948227967580417,1.23861223126304,0.7789734937881914,0.8960066642625832,0.5501102459839589,1.164715040107274,0.4499860444280871,0.8592148469289896,0.5760543923483386,1.014083761869769,0.5543530694740687,1.094779908190744,0.4017986884676782,0.254840328152065,0.1641405413451986,0.6829875018091199,0.2749245341413525,-0.1495176732261098,-0.2801324750991567,0.27318489538765,812.3076923076924,788.5347985347986,782.0879120879121,782.0879120879121,783.6996336996338,0.179871,-0.081238,0.985413,2.743988,-4.478607,0.358887,1,1,1,1,1,35.000000
2021-11-27 18:52:58.558,0.6948227967580417,1.08348920345433,1.038443216042748,0.8960066642625832,0.5501102459839589,0.9579118535388583,0.6389368855695143,0.8592148469289896,0.5760543923483386,0.7909417808209737,0.7529184912223549,1.094779908190744,0.4017986884676782,0.3781515124041446,0.2851447324033795,0.6829875018091199,0.2749245341413525,-0.02988253103072716,-0.07647757640127464,0.27318489538765,778.4615384615385,802.6373626373627,799.8168498168499,763.956043956044,790.952380952381,0.176514,-0.094482,0.979553,3.805695,-4.269257,-3.678589,1,1,1,1,1,35.000000
2021-11-27 18:52:58.797,,,,,,,,,,,,,,,,,,,,,,,,,,,,,,,,,,,,,,/muse/elements/blink
2021-11-27 18:52:59.553,0.9114992740005755,1.422258619254606,1.074479882713478,0.7739514907419728,0.7875296566303577,1.206558282465899,0.7340987199867908,0.6868393269882199,0.8368730111676161,0.9192138266311894,0.8416010973220138,0.7890368211071481,0.7678340115326368,0.4083705238720904,0.3019624128280848,0.767764114290123,0.1800350166108216,0.06689597062296908,-0.05561975453466205,0.2924289429829668,794.5787545787546,785.3113553113553,799.4139194139194,794.1758241758242,889.6703296703297,0.168640,-0.086914,0.992859,4.044952,-5.787048,-1.547699,1,1,1,1,1,35.000000
2021-11-27 18:53:00.553,0.1080116510088521,1.156908096823287,0.4195347185906467,0.7707294401359051,0.8310411585428514,0.9586804054121028,0.5414507512169143,0.3982275988839521,0.8724996171476942,0.9389335873878059,0.6354434287610118,0.6614885791207065,0.4454687189088166,0.3076822807056508,0.1889937839473406,0.6466388363543657,0.1574251300443639,0.126853074899468,-0.04160907096228881,0.4051827027586615,815.934065934066,774.0293040293041,779.2673992673992,803.4432234432235,737.7655677655678,0.159607,-0.097412,1.000854,4.261780,-4.022522,-2.886047,1,1,1,1,1,30.000000
2021-11-27 18:53:00.610,,,,,,,,,,,,,,,,,,,,,,,,,,,,,,,,,,,,,,/muse/elements/blink
2021-11-27 18:53:01.325,,,,,,,,,,,,,,,,,,,,,,,,,,,,,,,,,,,,,,/muse/elements/blink
2021-11-27 18:53:01.554,0.03894221331519516,1.169818292090078,0.966697917070458,0.3757548194499041,0.9155764056650093,1.064360969837689,0.8572611802495148,0.410920469211377,0.8604435486753438,0.9253730918039145,0.5297064982412727,0.5561738021542,0.3904522720421582,0.1673041911778219,0.1119912028480538,0.6648539317066596,0.01433283212423958,-0.2310440806339369,-0.1840803044947418,0.4491823677418991,798.2051282051282,790.1465201465202,791.7582417582418,783.2967032967033,551.6117216117216,0.148193,-0.091125,1.003418,4.284210,-5.166473,-1.607513,1,1,1,1,1,30.000000
2021-11-27 18:53:02.552,1.087729523306616,1.535369825254955,1.322715826518581,0.4435010651077949,0.7017300070743491,1.26022413295962,1.002425758744599,0.8517379245713006,0.2336587038454189,1.00796827745001,0.7169541315439536,0.5487598633134975,0.5828946939714521,0.3388796790454134,0.2206401920948826,0.4854510306114562,0.1015036389024305,-0.3997303257194554,-0.3215929983912856,0.3039719621635927,804.2490842490843,788.1318681318681,790.1465201465202,784.9084249084249,845.7509157509157,0.155762,-0.093933,0.998169,3.947754,-4.112244,-2.474823,1,1,1,1,1,30.000000
2021-11-27 18:53:03.255,,,,,,,,,,,,,,,,,,,,,,,,,,,,,,,,,,,,,,/muse/elements/blink
2021-11-27 18:53:03.553,1.009117052194549,1.233881525117196,1.220503265853484,0.4075691334581913,0.7063580609270607,0.8842771009248471,0.6572958675828454,0.6861497422242065,0.7871017557792425,0.8074343342647718,0.7148381726760741,0.5737413312089589,0.5615177821185366,0.2529705425834839,0.110367808637342,0.6823010826037808,0.04347220876776985,-0.2904749800976928,-0.184537586918809,0.4165942915824417,803.8461538461539,790.1465201465202,793.7728937728938,791.7582417582418,713.992673992674,0.140503,-0.085266,1.003235,5.196381,-8.583374,-2.287903,1,1,1,1,1,30.000000
2021-11-27 18:53:04.560,0.5809771776941246,1.402814733435107,0.9599078362249883,0.8408453632949926,0.3540831578404279,1.158748083813647,0.6096893983484096,0.6390921044320661,0.769953763574913,0.8587688564752975,0.7255224352417045,0.8256510998095112,0.4835053838744999,0.2976468776617015,-0.00765995082287072,0.4630237388589685,0.1131211016286417,-0.1978156005224999,-0.2487148454302823,0.2097225691865514,792.967032967033,784.9084249084249,793.7728937728938,772.8205128205128,662.014652014652,0.164551,-0.068298,0.992249,4.650574,-4.934692,-1.158905,1,1,1,1,1,30.000000
2021-11-27 18:53:05.083,,,,,,,,,,,,,,,,,,,,,,,,,,,,,,,,,,,,,,/muse/elements/blink
2021-11-27 18:53:05.482,,,,,,,,,,,,,,,,,,,,,,,,,,,,,,,,,,,,,,/muse/elements/blink
2021-11-27 18:53:05.560,0.5634077017136507,1.321379735368712,0.9720644632133174,0.7926405564777363,0.3613590825472943,1.023003376861584,0.7699991758808148,0.6568158597097838,0.8133271860380055,0.8781356743074995,0.7422490703057366,0.8530238671995458,0.5057445685728378,0.2254888910424771,0.0324206490783472,0.4942345714750933,0.1215763380665688,-0.3103291804699324,-0.2060438915662587,0.1440683025600343,772.8205128205128,781.2820512820513,790.1465201465202,768.3882783882784,746.6300366300367,0.175354,-0.073059,0.996765,4.658051,-6.587067,-1.315918,1,1,1,1,1,30.000000
2021-11-27 18:53:06.396,,,,,,,,,,,,,,,,,,,,,,,,,,,,,,,,,,,,,,/muse/elements/blink
2021-11-27 18:53:06.552,0.4986236058696891,1.333910819269198,0.8788178779798638,0.7159135035572284,0.3865928950864392,1.160892815525015,0.8540941116933104,0.7256091112845846,0.5875596968314112,0.8196431589019459,0.6965132256084058,0.8397789252275805,0.5384853984498884,0.1402101229329865,0.005494572308036344,0.5296163480211685,0.1405796949223196,-0.3971208704334171,-0.3191855553790928,0.04841943413304151,803.4432234432235,778.8644688644689,786.5201465201466,792.5641025641025,780.4761904761905,0.169983,-0.076416,1.001892,3.701019,-5.592651,-3.439331,1,1,1,1,1,30.000000
2021-11-27 18:53:07.559,0.4986236058696891,1.182054307757583,0.9742459026809471,0.7159135035572284,0.3865928950864392,0.837063962191576,0.7591121673685176,0.7256091112845846,0.5875596968314112,0.496256765801676,0.460697776748643,0.8397789252275805,0.5384853984498884,0.1635121821624724,-0.0154589640550834,0.5296163480211685,0.1405796949223196,-0.420933331746756,-0.2610591865329474,0.04841943413304151,785.7142857142858,790.952380952381,788.5347985347986,770.4029304029305,709.9633699633699,0.182312,-0.079651,0.994263,4.471130,-4.344025,-1.757050,1,1,1,1,1,30.000000
2021-11-27 18:53:08.553,0.8214501795344105,0.07583249912915625,0.2476593519748195,0.4505536796182005,0.3498958863805926,-0.02742224603950724,-0.05967372900109841,0.5243836112090949,0.6540993292032288,0.2221419826797936,0.1593559383228058,0.9570555677017489,0.4418658815762147,0.1405999873176519,-0.02023408486867881,0.531763499417652,-0.09173625743788665,-0.3143649827946641,-0.2658799561292389,0.02840550851919911,782.893772893773,810.2930402930403,758.3150183150184,790.1465201465202,818.7545787545788,0.147827,-0.072449,1.012268,4.179535,-6.228180,-4.575806,1,1,1,1,1,30.000000
2021-11-27 18:53:09.341,,,,,,,,,,,,,,,,,,,,,,,,,,,,,,,,,,,,,,/muse/elements/blink
2021-11-27 18:53:09.552,1.363367857858864,0.9678962394568311,1.061683655986277,1.169494559674346,0.6743538880783435,0.7205758282810796,0.5778100025128849,0.5941890266269407,1.086573889300002,0.7469883290738082,0.2404122432854881,0.7881412858246155,0.4806186133724853,0.03617644428131248,0.04556584649691559,0.541534952964986,0.2962455598882804,-0.4034675683784984,-0.2296231218511662,0.3205480383942221,834.4688644688645,795.3846153846154,792.1611721611722,757.9120879120879,352.967032967033,0.217957,-0.041992,0.994446,11.424561,-3.431854,-0.403748,1,1,1,1,1,30.000000
2021-11-27 18:53:10.056,,,,,,,,,,,,,,,,,,,,,,,,,,,,,,,,,,,,,,/muse/elements/blink
2021-11-27 18:53:10.553,1.612906290853824,1.391677898915521,1.534089456422884,1.457972678545353,0.7881068529398216,1.203869716412167,1.195340124096681,0.7103834879324383,1.047804054315392,0.8079820031016298,0.8783078592808869,0.7505784090854876,0.5891815882141695,0.2199270982253353,0.2244909548381088,0.4963701026348934,0.4945933367653192,-0.453600893789831,-0.3098344678701691,0.4267146479359991,797.3992673992674,789.3406593406594,794.981684981685,774.8351648351648,736.959706959707,0.180237,-0.097351,0.989258,2.160797,-3.910370,0.089722,1,1,1,1,1,30.000000
2021-11-27 18:53:11.552,1.38121936974936,1.070806799817059,1.461337727907355,0.5853338026088051,1.123680015100564,0.9089471219925315,1.245582066510776,0.4415826341564767,1.146675169909056,0.5542345971746705,0.8783078592808869,0.3127272446891812,0.6030477998718937,0.1706877029432198,0.1920612190901554,0.4434488490058963,0.1927048535669811,-0.3196027191783882,-0.2943691155035034,0.3651614638360187,749.047619047619,823.5897435897436,819.96336996337,753.8827838827839,834.8717948717949,0.196289,-0.083984,0.979553,6.497345,-6.639404,-1.973877,1,1,1,1,1,30.000000
2021-11-27 18:53:11.761,,,,,,,,,,,,,,,,,,,,,,,,,,,,,,,,,,,,,,/muse/elements/blink
2021-11-27 18:53:12.553,1.387978905403991,1.065754256590782,1.046998426585661,0.5893458263655177,1.125292871826576,0.8739144994612724,0.6821479367699071,0.4175751732798215,1.153483818707087,0.7437104729285974,0.5089380603002234,0.341956130004275,0.5810506668275751,0.1398189118026339,0.02013857126900937,0.4816960493220135,0.1573971195735401,-0.3245639657774103,-0.3066267859950662,0.338062713553461,790.5494505494506,784.1025641025641,792.967032967033,779.6703296703297,790.952380952381,0.204590,-0.082764,0.995972,4.590759,-5.787048,-4.254303,1,1,1,1,1,30.000000
2021-11-27 18:53:13.310,,,,,,,,,,,,,,,,,,,,,,,,,,,,,,,,,,,,,,/muse/elements/blink
2021-11-27 18:53:13.552,1.21988260875207,1.298802564691508,1.324559620490849,1.188803930829834,1.006885048705408,0.9501355884322763,0.815443342223098,1.268011100103755,1.090558113505122,0.7603836562616483,0.5343221860708758,0.6945984501881648,0.7486738055649217,0.1182667838102741,0.05538856697927099,0.941763581150344,0.4029636666888797,-0.4030315820960272,-0.3310262988350777,0.3208160427959827,783.6996336996338,784.9084249084249,781.6849816849817,782.0879120879121,804.6520146520147,0.181091,-0.098877,0.974426,3.558960,-4.904785,-3.618774,1,1,1,1,1,30.000000
2021-11-27 18:53:14.563,0.9322285120933425,1.388675069215435,1.292687215244035,0.867906931116736,0.6943388346412748,0.8669321087347892,0.9604154888260866,0.6908348376820371,0.9947583602816981,0.6763236750555268,0.4774707427313206,0.6586847535977486,0.3342598874455764,0.00270471175837856,0.2035772506553021,0.6144914070212441,0.04343250313160895,-0.3724196284621285,-0.2429539340794993,0.04307494605545972,783.2967032967033,793.3699633699634,793.7728937728938,772.4175824175825,778.8644688644689,0.190063,-0.077454,1.000427,6.392670,-3.095398,1.644897,1,1,1,1,1,30.000000
2021-11-27 18:53:15.151,,,,,,,,,,,,,,,,,,,,,,,,,,,,,,,,,,,,,,/muse/elements/blink
2021-11-27 18:53:15.552,1.15691362213127,1.350215528257875,0.9504033428996601,0.8567422026408256,0.5759367989300486,1.027626338157818,0.6815617719366703,0.6596673320769346,0.717918282841723,0.9809686290560983,0.7909726845490312,0.698370400448001,0.4101957502492585,0.2721975477329351,0.2593487672962453,0.6219368770942918,0.1833299792385315,-0.4404234761128478,-0.336912100828343,0.1232461306462068,801.8315018315019,790.1465201465202,790.5494505494506,776.4468864468864,940.0366300366301,0.145264,-0.067627,1.000183,4.598236,-3.386993,-1.009369,1,1,1,1,1,30.000000
2021-11-27 18:53:16.560,0.9322524300469578,1.319747671818866,0.7269303484635091,0.8317706963857963,0.5060351125774071,1.001676553122849,0.4082607569967409,0.8673710476115759,0.9753759394958224,0.9769411481061406,0.7658594663462254,0.5644598409917264,0.647387098671528,0.2460149140809454,0.1279881650521237,0.3244186778573367,0.223430837104046,-0.3387463886793667,-0.3287131470850082,-0.02703811137858132,807.4725274725275,788.1318681318681,793.3699633699634,780.0732600732601,603.992673992674,0.177917,-0.088989,0.993103,2.160797,-1.383209,-5.607605,1,1,1,1,1,30.000000
2021-11-27 18:53:17.555,0.9753882522827727,0.9712375328469883,1.00087885257003,1.0392773784242,0.5989060297367893,0.8013429539916425,0.5358694414417966,0.872384272008805,1.154536786252616,0.8259635766203166,0.4911764530330257,1.059208285333818,0.6484764077926981,0.15398215024703,0.09099042956462164,0.4788614785511475,0.238383385981026,-0.4677435160414892,-0.4383550207720038,0.04943905769666691,783.2967032967033,790.5494505494506,784.5054945054945,806.2637362637363,920.6959706959707,0.161438,-0.103882,0.983459,0.657959,-3.985138,2.856140,1,1,1,1,1,30.000000
2021-11-27 18:53:18.103,,,,,,,,,,,,,,,,,,,,,,,,,,,,,,,,,,,,,,/muse/elements/blink
2021-11-27 18:53:18.552,0.6399829078015862,1.441385866332471,1.023464454757386,1.254399976904646,0.7172311424959663,1.213178983664912,0.5819440802468405,0.9917289223503908,1.256576048745242,0.8655720773339747,0.3605489821512634,1.17392724518461,0.4892171740768166,0.1243594158809735,0.07823263175662065,0.6479229535327183,0.1248506122985123,-0.5200928260277432,-0.4083250818192568,0.1644326449416152,792.1611721611722,782.4908424908425,801.8315018315019,814.3223443223443,676.1172161172161,0.149353,-0.112610,0.971069,11.910553,-4.284210,-15.424652,1,1,1,1,1,30.000000
2021-11-27 18:53:19.552,0.9997341459090305,1.374007637482663,0.5636811084267318,1.030139192747172,0.3347361987328979,1.13229681961188,0.3049928974591642,0.694311510241845,0.7390595907825117,0.7689255464625597,0.2130003357232851,0.6797703250667492,0.5230057735513468,-0.0482039908286338,0.00300776589769059,0.5338339859451957,0.06028620048916294,-0.5388203727472552,-0.3438850068068032,0.2544551791050067,804.2490842490843,799.8168498168499,793.7728937728938,774.8351648351648,723.2600732600732,0.187866,-0.074890,0.993042,3.237457,-5.615082,-2.235565,1,1,1,1,1,30.000000
2021-11-27 18:53:20.567,0.7119428443929732,0.9600609407286849,1.043275744165276,0.8694498599069747,0.3885623939355369,0.4254661290775856,0.477474140589921,0.6711099217431611,0.7433651040054092,0.5236136957096545,0.3830827170653082,0.740701616064073,0.3811950851970983,0.02130233956764934,-0.09413894374385691,0.4645919546069019,-0.1370702726414693,-0.495725948198214,-0.3391565754040526,0.1531245339224871,801.4285714285714,789.7435897435897,790.5494505494506,785.7142857142858,774.8351648351648,0.183044,-0.078796,0.992126,4.074860,-5.465546,-2.377625,1,1,1,1,1,35.000000
2021-11-27 18:53:21.158,,,,,,,,,,,,,,,,,,,,,,,,,,,,,,,,,,,,,,/muse/elements/blink
2021-11-27 18:53:21.551,0.4838078251105687,1.028346238767386,0.8250108619805432,0.5189433322654091,0.3445767370853645,0.8650754399218046,0.6389121273507775,0.7123697812033379,0.349339797586486,0.9452303207840019,0.265756484415754,0.5917377611235352,0.3218181779882349,0.181999703624786,0.04618092854977335,0.4586498254615987,-0.217510004961858,-0.5827530129634848,-0.5126014897883329,0.007442227578221304,793.3699633699634,796.5934065934066,789.3406593406594,784.5054945054945,740.1831501831502,0.189392,-0.087219,0.988342,4.568329,-4.687958,-1.966400,1,1,1,1,1,35.000000
2021-11-27 18:53:22.552,0.1113728511875939,1.116601654055322,0.9473223139767645,0.3940389028255852,0.1498852036060074,0.9593912640770511,0.6920655456643832,0.159308368927585,0.4194281650113099,0.9452303207840019,0.3613570659966061,0.3488035923762178,0.2911483470780771,0.2117719816786185,0.05893712756733598,0.6072633826148701,-0.3187554602309102,-0.3604488490957148,-0.5344025493989769,-0.06235709520850664,807.0695970695971,800.6227106227107,791.3553113553114,784.9084249084249,782.0879120879121,0.184814,-0.087646,0.997864,3.386993,-3.618774,-5.824432,1,1,1,1,1,35.000000
2021-11-27 18:53:23.256,,,,,,,,,,,,,,,,,,,,,,,,,,,,,,,,,,,,,,/muse/elements/blink
2021-11-27 18:53:23.556,0.2339767403821723,1.155741257723745,1.069790238812135,0.8821112612712755,0.2624121575462131,0.8757182453866692,0.7060209917235426,0.6388231540488415,0.48969268205468,0.6324661211725809,0.3745156154866406,0.5966517892264259,0.2705796283412079,0.0804628546184179,0.1677665606063576,0.485429177876529,-0.2520552982182833,-0.2893643469377875,-0.4230465405841662,-0.03894799346763205,790.1465201465202,788.9377289377289,794.5787545787546,781.2820512820513,704.7252747252747,0.206421,-0.074341,0.987122,6.003876,-5.951538,-0.186920,1,1,1,1,1,35.000000
2021-11-27 18:53:24.554,0.7818892269180614,1.315703543736088,0.787937898059435,0.7984281322013154,0.5332017956665857,1.031530310817769,0.6500875845722753,0.4023997507994213,0.312919384103982,0.5292538709995865,0.4580360525276951,0.7119939171936279,0.2389436589626873,-0.02509717230231223,0.158627873633218,0.2403593364093735,-0.1250107596638941,-0.3824668436040736,-0.3580458599410648,-0.06214103136912049,802.2344322344322,788.5347985347986,800.6227106227107,797.3992673992674,848.1684981684982,0.203308,-0.087585,0.991516,4.142151,-4.934692,-2.003784,1,1,1,1,1,35.000000
2021-11-27 18:53:25.552,0.5596720555742062,0.8898688154559792,0.9554710682356841,0.9116038959322558,0.4045014445634955,0.6535346421547825,0.5695442066988303,0.6400958334764353,0.4846350616643098,0.6244139774068309,0.4732192422660273,0.7605460421483493,0.167739046957284,0.03903806367442907,0.1081365382363291,0.3434013871437283,-0.1614514521414848,-0.4163458267429397,-0.2928388784198647,0.06115615131617701,796.996336996337,780.8791208791209,809.8901098901099,790.5494505494506,683.7728937728938,0.206970,-0.086426,0.989502,6.220703,0.403748,-2.953339,1,1,1,1,1,35.000000
2021-11-27 18:53:26.552,0.4906828232430982,0.9289557514224359,1.008156257159776,0.7656378084478558,0.2589710510314342,0.6152937591448985,0.6201036333187576,0.5819556614890223,0.611672918754357,0.6058210147449551,0.4961637402770922,0.5882739569375266,0.2073651150931582,-0.0549129362066358,0.1928380815372832,0.4885934882445558,-0.06911603098550508,-0.4776255685185515,-0.2536197511694331,0.2085241324632461,833.6630036630037,777.6556776556777,782.4908424908425,815.5311355311355,775.6410256410256,0.208374,-0.090210,0.992432,4.777679,-5.046844,-2.205658,1,1,1,1,1,35.000000
2021-11-27 18:53:26.723,,,,,,,,,,,,,,,,,,,,,,,,,,,,,,,,,,,,,,/muse/elements/blink
2021-11-27 18:53:27.556,0.5997408490314999,1.057251064456282,1.248971335906008,0.5611829458657053,-0.09569549987882768,0.8677474153226477,0.7491854256943149,0.42482520287204,0.4698628309769115,0.6466231948869304,0.8224729968430314,0.5023020093518179,0.2168428323897865,0.07718925267378532,0.2366872878099527,0.529127256338762,-0.08774474506232126,-0.3457926364727117,-0.282562223938827,0.1758744801789432,792.1611721611722,801.4285714285714,791.7582417582418,779.2673992673992,687.3992673992674,0.179199,-0.108398,0.980225,6.190796,-4.201965,-1.809387,1,1,1,1,1,35.000000
2021-11-27 18:53:28.237,,,,,,,,,,,,,,,,,,,,,,,,,,,,,,,,,,,,,,/muse/elements/blink
2021-11-27 18:53:28.559,0.6337277157908857,1.333882615577913,1.319727663523358,1.061258821771198,0.6749711588613356,0.9032423164431372,0.7961516902673288,0.9321534875177528,0.8825866755123457,0.7212294932165634,0.7885566125009641,0.6833005381643611,0.4580536430603484,0.1699192423506076,0.1211409063342853,0.689552695462739,0.3316755835762045,-0.1487888407022683,-0.12501773864072,-0.04240252993808202,792.1611721611722,794.1758241758242,794.981684981685,765.5677655677656,693.8461538461538,0.210449,-0.086060,0.995483,5.144043,-3.902893,-3.274841,1,1,1,1,1,35.000000
2021-11-27 18:53:29.552,0.7681372340237844,0.8844765340551615,0.7914290274512273,0.7440839650529486,0.7398092874522931,0.6582446940906825,0.5036262558837868,0.801825751527144,0.9535535440213109,0.5206255472101384,0.4035531858521162,0.8235076871063897,0.4086601137683369,0.1275492094175242,0.1208337923013433,0.6945310654754834,0.2989489756513808,-0.1439731856601035,-0.2233303997748115,-0.03587094525087282,792.5641025641025,794.5787545787546,792.5641025641025,799.8168498168499,868.7179487179487,0.220459,-0.079834,0.989868,4.029999,-4.800110,-2.631836,1,1,1,1,1,35.000000
2021-11-27 18:53:30.277,,,,,,,,,,,,,,,,,,,,,,,,,,,,,,,,,,,,,,/muse/elements/blink
2021-11-27 18:53:30.552,0.5583103724828151,1.159964721315455,1.264850710865672,0.737691265037264,0.5811475400990872,0.7812197086987638,0.7355561405174307,0.7334839130186779,0.9659441520564049,0.7114386073771769,0.6980558237840692,0.8826001564118747,0.5109294458108802,0.2537825702400688,0.3027440149732913,0.6415970590847857,0.1355279903475153,-0.3049654279830398,-0.08666094327753039,0.05726052938575987,805.0549450549451,790.5494505494506,792.967032967033,802.2344322344322,657.985347985348,0.222046,-0.085388,0.987488,4.687958,-4.613190,-2.347717,1,1,1,1,1,35.000000
2021-11-27 18:53:31.558,0.3357543474390904,1.308257428585924,1.238121464589364,0.4606050729178471,0.3066399655868409,0.9962431930508919,0.7860844090217946,0.3690687427510279,0.7747923172360462,0.7013915542249682,0.729249093416617,0.7368631053557329,0.5988793147984296,0.1606489941139947,0.1142646735938384,0.568905068459258,0.3617082317300309,-0.2451875234546805,0.03357381355209955,0.2686066983336137,798.6080586080586,794.981684981685,794.981684981685,792.5641025641025,763.956043956044,0.211853,-0.090881,0.983582,4.254303,-4.755249,-1.929016,1,1,1,1,1,35.000000
2021-11-27 18:53:32.552,0.06945040298224282,0.3564615449746097,0.4846470144598501,0.4848907083401328,0.4351850036330618,0.00498839727097693,0.2094486471445146,0.4998340726954923,0.9019640066666856,0.1358309108896875,0.5171779204820758,0.8616581341187446,0.5106582332201944,0.01798785311872064,0.1986692142413127,0.5951581235069671,0.3075739562005225,-0.2110209681012824,0.05790000685680594,0.3660568859683693,794.5787545787546,793.3699633699634,796.1904761904763,792.967032967033,768.3882783882784,0.223328,-0.091736,0.992126,5.129089,-4.059906,2.332764,1,1,1,1,1,35.000000
2021-11-27 18:53:33.335,,,,,,,,,,,,,,,,,,,,,,,,,,,,,,,,,,,,,,/muse/elements/blink
2021-11-27 18:53:33.552,-0.150853911475743,0.7628242861638325,0.7168761702216856,0.5419230999409913,0.2556911265732851,0.6456549764397259,0.1982285302573402,0.2034122093679735,0.6981204404424795,0.5580270575553108,0.3224973813817178,0.5585038487948,0.2380729570388829,0.1771041910919507,0.1939523443051051,0.5645338676442487,0.1578267887966174,-0.2466873817748655,-0.03044583887089236,0.3983262867078988,781.6849816849817,780.4761904761905,799.8168498168499,780.0732600732601,838.4981684981685,0.213013,-0.068909,0.995178,4.456177,-5.241241,-1.345825,1,1,1,1,1,35.000000
2021-11-27 18:53:34.565,0.4254226930400092,1.110689208051833,0.7781728386522375,0.4896524437272283,-0.03657858681429712,0.9689871789610535,0.3018320071311298,0.2986897546608013,0.7241510251911063,0.6216620612191124,0.339359831318701,0.7369199228886419,0.3800189060012195,0.2000733961909424,0.02651038836789705,0.3689508026937383,-0.08468633496895145,-0.2007871436247446,-0.08629214493214496,0.08449533381130034,786.1172161172161,796.1904761904763,786.5201465201466,770.4029304029305,740.5860805860806,0.210388,-0.065857,0.989502,4.889832,-5.727234,-1.973877,1,1,1,1,1,35.000000
2021-11-27 18:53:35.025,,,,,,,,,,,,,,,,,,,,,,,,,,,,,,,,,,,,,,/muse/elements/blink
2021-11-27 18:53:35.552,0.543382473562405,1.395326254327388,1.197037581323329,0.5087643297689008,-0.06669880290670262,0.4627933087726829,0.7811100049428539,0.2742567415876371,0.7118753265423614,0.4669628007841802,0.3085760692998029,0.6736224938956642,0.4270545887007492,0.05617336167738695,0.2100891107373262,0.3446834760203312,0.01944736635194142,-0.2805727047192441,-0.0768423231933711,-0.0391311242757389,811.0989010989011,794.5787545787546,798.2051282051282,797.3992673992674,684.981684981685,0.120667,0.043823,1.000488,10.714264,-8.837585,-11.342316,1,1,1,1,1,35.000000
2021-11-27 18:53:36.247,,,,,,,,,,,,,,,,,,,,,,,,,,,,,,,,,,,,,,/muse/elements/blink
2021-11-27 18:53:36.552,0.633029826331662,1.508637249920628,1.323686083057419,0.6322695488228545,0.01102630742825652,0.6316896702628675,0.8910004615266326,0.2335056873310241,0.6790725729709084,0.5765722368551266,0.3226383644480782,0.6208898579578632,0.444870955897242,0.1641642108729406,0.1302589474923162,0.3201201643028507,0.1012831247947182,-0.1782771316476012,-0.2949794857705273,-0.01033579990305587,786.5201465201466,818.7545787545788,795.7875457875458,780.4761904761905,761.5384615384615,0.143738,0.187195,0.983093,7.805786,-6.243134,2.385101,1,1,1,1,1,35.000000
2021-11-27 18:53:36.843,,,,,,,,,,,,,,,,,,,,,,,,,,,,,,,,,,,,,,/muse/elements/blink
2021-11-27 18:53:37.555,0.633029826331662,1.242179392886446,1.010436372647931,0.6322695488228545,0.01102630742825652,0.7685109744467696,0.7769503035377534,0.2335056873310241,0.6790725729709084,0.6508409729813225,0.6079103375674976,0.6208898579578632,0.444870955897242,0.6075336990582187,0.2588199593905193,0.3201201643028507,0.1012831247947182,0.4042549642822399,-0.2243648001754774,-0.01033579990305587,792.1611721611722,810.2930402930403,791.7582417582418,776.0439560439561,622.9304029304029,0.170471,0.222229,0.982849,5.316010,-4.628143,-4.844971,1,1,1,1,1,35.000000
2021-11-27 18:53:38.297,,,,,,,,,,,,,,,,,,,,,,,,,,,,,,,,,,,,,,/muse/elements/blink
2021-11-27 18:53:38.552,1.176368705771255,1.472796693903555,1.076585818890454,1.30429935338978,1.052981706042642,0.7519469528688304,0.6560543662127419,1.085353287265758,0.9981240067235518,0.404449636659555,0.6167232977523242,1.094697522756495,0.7547525643766074,0.4436561569974674,0.2044261458749225,0.4155867965158708,0.4521175779597931,0.4171943091261633,-0.2723619323767294,0.08680994718783931,705.1282051282052,836.0805860805862,811.9047619047619,682.967032967033,910.6227106227107,0.174072,0.219482,0.968567,4.067383,-5.375824,-1.136475,1,1,1,1,1,35.000000
2021-11-27 18:53:38.827,,,,,,,,,,,,,,,,,,,,,,,,,,,,,,,,,,,,,,/muse/elements/blink
2021-11-27 18:53:39.552,1.254401475937053,1.390888092068421,0.997339201068172,1.056316135806199,1.168475235998925,1.080527263628834,0.6508416221752307,1.112360638577818,0.9888821187259649,0.8018355477313105,0.6222649703274422,1.0899861972833,0.7128761372106317,0.3282157453117775,0.07302437386354979,0.4324951642918934,0.4632713508379276,0.2694631828415458,-0.4379291361312949,0.04269350621038616,805.4578754578755,790.5494505494506,799.0109890109891,809.4871794871796,762.3443223443223,0.168091,0.196899,0.983459,4.373932,-2.228088,3.618774,1,1,1,1,1,35.000000
2021-11-27 18:53:40.331,,,,,,,,,,,,,,,,,,,,,,,,,,,,,,,,,,,,,,/muse/elements/blink
2021-11-27 18:53:40.552,0.9428039366761493,1.200086501043796,1.005427613580822,1.128012571450486,0.2814005621324734,1.015770377285484,0.6787128538554258,1.14522996171359,0.4685082769393857,0.8660056028289611,0.6000006545935361,1.076662441988889,0.918142871998375,0.2683149776549648,0.1089075831309241,0.4555535749239899,0.6464209228623793,0.1494137934049417,-0.3256296987872447,0.0478336532813231,797.8021978021978,783.6996336996338,806.6666666666667,763.956043956044,850.989010989011,0.152832,0.165710,0.975342,0.336456,-4.448700,-1.368256,1,1,1,1,1,35.000000
2021-11-27 18:53:41.350,,,,,,,,,,,,,,,,,,,,,,,,,,,,,,,,,,,,,,/muse/elements/blink
2021-11-27 18:53:41.558,0.9452656834825491,1.401699750222448,0.878140351219825,1.128012571450486,0.4704557792294274,1.209915268959083,0.6529183753762666,1.14522996171359,0.7167111186374119,0.8663546932985956,0.5613590236619794,1.076662441988889,0.9127494689882885,0.2332547041485354,-0.01157852490161035,0.4555535749239899,0.5873174363624732,0.0607197547440075,-0.2954926172029582,0.0478336532813231,832.4542124542124,760.3296703296703,792.1611721611722,811.5018315018315,812.3076923076924,0.121033,0.130676,1.008179,4.119720,-3.102875,-1.637421,1,1,1,1,1,25.000000
2021-11-27 18:53:41.659,,,,,,,,,,,,,,,,,,,,,,,,,,,,,,,,,,,,,,/muse/elements/blink
2021-11-27 18:53:42.552,0.9452656834825491,0.9135329071077392,0.3075173567254715,1.128012571450486,0.4704557792294274,0.6507188302227265,0.1705918349315901,1.14522996171359,0.7167111186374119,0.6279070549800182,0.3661867461603672,1.076662441988889,0.9127494689882885,0.2154475162623055,0.1296195985208998,0.4555535749239899,0.5873174363624732,-0.08874045874223954,-0.3509275333819817,0.0478336532813231,794.5787545787546,778.4615384615385,793.7728937728938,773.2234432234433,707.5457875457876,0.121033,0.104553,0.992310,4.463654,-5.458069,-1.226196,1,1,1,1,1,25.000000
2021-11-27 18:53:42.945,,,,,,,,,,,,,,,,,,,,,,,,,,,,,,,,,,,,,,/muse/elements/blink
2021-11-27 18:53:43.567,0.806357254801187,1.24482903808503,0.362956452241056,0.7655021133902967,0.8290154604677727,1.018309941033158,0.1956645356184614,0.2988711102277815,0.5007851799594049,0.8611210957041285,0.3637666863230614,0.9340831368758411,0.5813344207216644,0.1442004793618715,0.1751476578731056,0.6332709195155486,0.065075049998981,-0.1349808490535929,-0.3001011228022657,0.5850225198741696,726.8864468864469,788.1318681318681,796.5934065934066,789.7435897435897,770,0.133728,0.134338,0.988159,4.194489,-4.867401,-4.658051,1,1,1,1,1,25.000000
2021-11-27 18:53:44.476,,,,,,,,,,,,,,,,,,,,,,,,,,,,,,,,,,,,,,/muse/elements/blink
2021-11-27 18:53:44.552,1.98289269430896,1.412714468087984,0.7947240770310877,0.8783004905625075,0.8011670874104947,1.10439546407993,0.4629512738293332,0.8586850951589666,0.5452374009577627,0.86577033432632,0.4726948783214916,0.7358278289118935,0.9949348631010342,0.2150647392648467,0.1762626320458876,0.7153681222718359,0.9737610324114454,-0.2255373960559673,-0.3033474595726449,0.5072751613419192,830.4395604395604,804.6520146520147,784.9084249084249,820.7692307692308,745.0183150183151,0.113464,0.138306,0.983704,6.901093,-4.874878,-6.370239,1,1,1,1,1,25.000000
2021-11-27 18:53:45.552,1.6785741958654,1.044554488790545,0.6676389713388061,0.9649685738264735,0.7008666876250128,0.7492388165769657,0.6680411282616265,0.7930231312691849,0.3854000005410062,0.6442980859270113,0.432619907721339,0.6961837944389683,0.8450217590159899,0.2282767749413577,0.1686779368786016,0.583379891962179,0.9181901185846858,-0.4024159545254893,-0.3773052979239919,0.3290648595684541,793.3699633699634,793.7728937728938,802.6373626373627,786.1172161172161,692.6373626373627,0.137207,0.155762,0.993530,4.000092,-5.652466,-0.897217,1,1,1,1,1,25.000000
2021-11-27 18:53:46.314,,,,,,,,,,,,,,,,,,,,,,,,,,,,,,,,,,,,,,/muse/elements/blink
2021-11-27 18:53:46.552,1.211257299500099,0.733593513906452,0.336128206634398,0.8003500262280634,0.8907046926873596,0.5809063806999812,0.3353635823383027,0.4605983517390166,1.254165154320781,0.6487660204810721,0.3014709625488485,0.7629801526753723,0.6076214643643879,0.05830913889411149,0.1270857532081863,0.4488736157312497,0.6901969831811969,-0.5257913031894254,-0.4446672542489285,0.1191809985539269,778.8644688644689,789.7435897435897,798.2051282051282,778.4615384615385,643.8827838827839,0.132751,0.150574,0.989502,4.673004,-5.256195,-2.841187,1,1,1,1,1,25.000000
2021-11-27 18:53:47.028,,,,,,,,,,,,,,,,,,,,,,,,,,,,,,,,,,,,,,/muse/elements/blink
2021-11-27 18:53:47.552,1.408027047451706,1.370188689214927,0.8973456048191649,0.8629889676166924,1.2206119596364,1.122579237988846,0.7101489230417086,0.4308956801995426,1.254165154320781,0.7706621221649483,0.3837116495274395,0.7496219974159172,0.5999637087879671,0.02476006342134607,0.1837447852256889,0.5292611719936472,0.6133560980880522,-0.5647974693744715,-0.3455565922720666,0.2040466935880376,805.0549450549451,791.7582417582418,791.3553113553114,780.0732600732601,830.8424908424909,0.124268,0.159424,0.990417,5.001984,-4.979553,-2.153320,1,1,1,1,1,25.000000
2021-11-27 18:53:48.552,0.4354745144655597,1.345726619463893,1.175947958516303,1.091956777182851,0.7387163601625639,0.9152513785302727,0.580235351388059,0.543789301507854,1.18501217632852,0.7766691380714986,0.5462065877055369,0.7068250156481269,0.6710234116506859,0.3344336711544214,0.216054654041348,0.5076309968564066,0.8675096021716608,-0.4187972118606804,-0.3558655006077162,0.2052835960020808,795.3846153846154,805.0549450549451,788.1318681318681,769.1941391941392,687.3992673992674,0.134338,0.157715,0.991394,6.534729,-5.480499,-1.375732,1,1,1,1,1,25.000000
2021-11-27 18:53:49.034,,,,,,,,,,,,,,,,,,,,,,,,,,,,,,,,,,,,,,/muse/elements/blink
2021-11-27 18:53:49.552,0.8991115256625811,1.239924041055519,1.038337625964023,1.109622802393717,0.8407839877393603,1.024266027739799,0.9087745136264969,0.7608158314752241,1.266723894914995,0.8057632308617894,0.8595822105906283,0.7928258848915647,0.7233651997205721,0.279865197443128,0.2644054342876914,0.5368442598272817,0.8822085224214535,-0.2342077857827772,-0.3711893644343493,0.1554216143803459,813.1135531135532,825.6043956043957,767.985347985348,777.2527472527473,651.1355311355312,0.132324,0.172302,0.985291,3.835602,-5.585175,-3.334656,1,1,1,1,1,25.000000
2021-11-27 18:53:50.552,1.152558693919564,1.407369313992899,1.093378020331504,1.233513864813131,0.4803303074141934,1.091290626733833,0.9515009123712297,0.6217471879664878,0.2329877754594858,0.9416121575146895,0.8332318274599929,0.6734917104940602,0.6452474830556906,0.2235008383416681,0.1500459035859982,0.5102327020388622,0.6592113512357991,-0.2646410221989239,-0.1067680052795843,0.4951852798138396,820.3663003663004,760.7326007326008,789.3406593406594,809.4871794871796,709.5604395604396,0.141907,0.168152,0.995239,6.213226,-10.250702,0.500946,1,1,1,1,1,25.000000
2021-11-27 18:53:50.675,,,,,,,,,,,,,,,,,,,,,,,,,,,,,,,,,,,,,,/muse/elements/blink
2021-11-27 18:53:51.186,,,,,,,,,,,,,,,,,,,,,,,,,,,,,,,,,,,,,,/muse/elements/blink
2021-11-27 18:53:51.552,1.080789840778178,1.511001036349373,1.026888830954138,1.22533761779409,0.487731712247692,1.217006316091062,0.5965687542606727,0.6422610072308552,0.2092910009278293,0.8784712975893249,0.6510760675884756,0.6599520994858324,0.6004236914848013,0.07735220429897896,0.0654271568848506,0.4812195637797001,0.7261842633130018,-0.2731906313584712,-0.04598213677177664,0.5183772472450795,794.5787545787546,794.5787545787546,792.1611721611722,765.1648351648352,539.92673992674,0.207642,0.187561,0.968384,4.373932,-6.116028,1.031799,1,1,1,1,1,30.000000
2021-11-27 18:53:52.005,,,,,,,,,,,,,,,,,,,,,,,,,,,,,,,,,,,,,,/muse/elements/blink
2021-11-27 18:53:52.552,1.080789840778178,1.363769578946695,1.184358559994308,1.213677889549962,0.487731712247692,1.1430803047654,0.9513966361400892,0.6654843203571776,0.2092910009278293,0.7882516874483982,0.5338369037667797,0.5908053464561893,0.6004236914848013,0.0468561027046825,-0.07220725336053613,0.4505935177248891,0.7261842633130018,-0.2621426468115614,-0.2528445747105151,0.5624482033693516,791.7582417582418,804.2490842490843,794.5787545787546,790.5494505494506,634.2124542124542,0.219482,0.207703,0.967285,5.144043,-5.188904,-2.975769,1,1,1,1,1,30.000000
2021-11-27 18:53:53.552,0.3938482345131275,1.274110897998881,1.172811402887619,0.454865403999927,0.4146931530744374,0.8941368499383354,0.9485366398474648,0.3039667663520458,0.4443451702668649,0.5726061151424194,0.6563446351816427,0.4731454604840522,0.4578647254732988,0.1254507223198313,0.0995001301098577,0.3333224063586497,0.1076531784223169,-0.3239914356833427,-0.4032265741743795,-0.05787523203790789,800.6227106227107,812.3076923076924,788.5347985347986,792.5641025641025,702.7106227106227,0.209167,0.209961,0.960815,4.605713,-4.598236,-1.652374,1,1,1,1,1,30.000000
2021-11-27 18:53:54.551,0.1784560366587743,0.5746209413529558,0.4776309734298076,0.3191614134479946,0.5084999615732121,0.251014025747556,-0.05626781384009058,0.4218685877912185,0.8522424949360172,0.3350613146692275,0.2908988368051819,0.8288467825768145,0.536463842916015,0.1485284692758416,0.1587079642630494,0.4339888078012595,0.1638161248732947,-0.3785099172169144,-0.3130972226893617,-0.2284855928488976,799.4139194139194,786.5201465201466,784.5054945054945,803.040293040293,575.7875457875458,0.222778,0.217468,0.960999,4.501038,-5.465546,-1.001892,1,1,1,1,1,30.000000
2021-11-27 18:53:54.667,,,,,,,,,,,,,,,,,,,,,,,,,,,,,,,,,,,,,,/muse/elements/blink
2021-11-27 18:53:55.557,1.281779975513785,1.038933529362717,0.4173021236264666,1.310323457330988,1.198618319283631,0.8586078040141587,0.2764400011729071,1.251246759335016,1.328337244586214,0.5049805083305635,0.1640534469206504,1.303679730384772,0.655790690841899,0.0899379556955243,0.130083325054397,0.3843119626446114,0.2481352861892041,-0.5408078835264859,-0.2887482649793031,-0.1390371461989217,795.7875457875458,794.981684981685,801.8315018315019,790.1465201465202,695.4578754578755,0.234863,0.214722,0.956909,4.874878,-4.059906,-2.213135,1,1,1,1,1,30.000000
2021-11-27 18:53:56.350,,,,,,,,,,,,,,,,,,,,,,,,,,,,,,,,,,,,,,/muse/elements/blink
2021-11-27 18:53:56.556,0.9837943019413837,0.7819538480147123,0.3227862171945259,1.057615608419636,0.7897851195984114,0.6118242463997258,0.183318449142206,0.8328931982154437,1.189462599875653,0.4492040463001578,0.2960894658873199,1.15823987564529,0.6090903174874973,-0.02667264088018527,0.1181592858493227,0.3554695817688875,0.1943035636178026,-0.7022158308383494,-0.3627035133901416,-0.07043898520163465,791.7582417582418,788.9377289377289,787.3260073260074,786.9230769230769,976.7032967032967,0.242371,0.217834,0.956787,4.777679,-5.749664,-1.271057,1,1,1,1,1,30.000000
2021-11-27 18:53:57.553,0.1560114467285458,1.132013419263525,0.5590332800355599,0.1651009269595463,0.07610930792005779,0.9347526005369311,0.4984993744467795,0.2052103357557681,0.4932874421257759,0.7466592308815035,0.5321386567120615,0.5234150518317653,0.4456673091234006,-0.02196600637917865,0.1204260485447686,0.4126902757182199,0.2473731958828841,-0.4902077107370721,-0.4148785112165584,-0.1485209880721138,791.3553113553114,813.5164835164835,772.4175824175825,772.4175824175825,631.7948717948718,0.234985,0.216736,0.956787,4.082336,-4.426270,-2.467346,1,1,1,1,1,30.000000
2021-11-27 18:53:58.402,,,,,,,,,,,,,,,,,,,,,,,,,,,,,,,,,,,,,,/muse/elements/blink
2021-11-27 18:53:58.551,0.2996131799010421,1.128328745271837,1.040132126432308,0.6673337729574693,0.1399415868800317,0.5333672370202481,0.4626844485014331,0.3161152755023969,0.6058332214045067,0.6524408951013222,0.6965027009480163,0.7191277917854946,0.4959303893670173,0.08510389555963638,0.1170594493621718,0.3390930689831058,0.1414737074173324,-0.3338441863552197,-0.4815132816043654,-0.1006455939373128,805.8608058608058,799.0109890109891,802.2344322344322,793.7728937728938,840.9157509157509,0.241943,0.212219,0.962280,3.872986,-6.721649,-2.534637,1,1,1,1,1,30.000000
2021-11-27 18:53:59.551,0.5643097307919525,1.20368896641462,1.029500714475908,0.700753128013038,0.1697031857779244,0.926130991962668,0.5396683180131832,0.3100588653914751,0.8108541849116996,0.7195448769388155,0.509485188457425,0.5531643073700735,0.5084346409556035,0.1166886040707966,-0.1219508144479726,0.3407012687165334,0.1098557559152639,-0.4018518470989407,-0.5309091265184417,-0.2032539795831691,797.8021978021978,788.9377289377289,798.6080586080586,794.981684981685,711.1721611721612,0.250610,0.202148,0.951111,3.768311,-4.852448,-3.185120,1,1,1,1,1,30.000000
2021-11-27 18:54:00.551,0.6555736048680357,0.08877142794678401,0.3203775302461229,0.8203712271896185,0.5771057653665848,-0.06188165107491717,0.09932025768327822,0.6106184764285113,0.9719538774142362,0.2135154510116265,0.4688638300901798,0.8296778997067927,0.562172790063353,-0.023521977223979,0.0198903680891031,0.4651185492984743,0.1837288016523628,-0.5334429853665912,-0.5180690903091931,-0.1955983424660752,783.2967032967033,793.3699633699634,787.7289377289378,779.2673992673992,651.941391941392,0.250061,0.200195,0.959351,3.491669,-5.061798,-2.347717,1,1,1,1,1,30.000000
2021-11-27 18:54:01.372,,,,,,,,,,,,,,,,,,,,,,,,,,,,,,,,,,,,,,/muse/elements/blink
2021-11-27 18:54:01.563,1.056289752325464,1.201258279610954,1.095918142036281,0.9693388299971538,0.8693068408738552,0.7540474798011976,0.6140746281357414,0.7096861767889969,1.247773463269302,0.6147313061163888,0.6852401486031223,0.9139066796995153,0.3593582537117818,-0.05308252567331306,0.03101582104501064,0.4141367500033328,0.1136378599274474,-0.5474820756791881,-0.5810853664815541,-0.2670821470890187,793.3699633699634,786.1172161172161,794.1758241758242,782.0879120879121,796.5934065934066,0.247192,0.209595,0.953308,4.605713,-4.702911,-2.190704,1,1,1,1,1,30.000000
2021-11-27 18:54:02.060,,,,,,,,,,,,,,,,,,,,,,,,,,,,,,,,,,,,,,/muse/elements/blink
2021-11-27 18:54:02.551,1.566428482592005,1.605110587061309,1.057587758808292,1.622842643087313,1.318434860337349,1.208946860974935,0.6391699873358296,1.259089028637691,1.28219734078811,0.7475364727661381,0.6273218376084778,0.9921252025589856,0.5355410574431863,0.0578360358644396,0.1071656893397927,0.4174441213385983,-0.1734834416422692,-0.4478072107666241,-0.3328156190777288,-0.1596257741361904,784.1025641025641,786.1172161172161,805.0549450549451,788.5347985347986,746.2271062271062,0.248901,0.212585,0.954407,4.224396,-4.882355,-2.272949,1,1,1,1,1,30.000000
2021-11-27 18:54:03.551,1.217854804857525,1.133796645942843,0.4039524653814606,1.303527396128404,0.9966085018843389,0.845995415217586,0.251973029982847,0.8959376653211318,1.182872214239348,0.6172875577031479,0.2550359998461811,0.9924677752990103,0.6959547898793252,0.1049517453709118,0.05789022602089454,0.3383882051164731,0.03987360303103678,-0.4143744769772144,-0.3879363010024384,-0.134052867292509,793.7728937728938,798.6080586080586,790.952380952381,774.4322344322345,689.0109890109891,0.245972,0.210999,0.953491,3.588867,-4.785156,-2.766418,1,1,1,1,1,30.000000
2021-11-27 18:54:03.994,,,,,,,,,,,,,,,,,,,,,,,,,,,,,,,,,,,,,,/muse/elements/blink
2021-11-27 18:54:04.557,1.232067130751775,1.330937081254414,1.125119880779374,1.344786401794998,1.184615428326013,1.076506782395235,0.605394280577144,1.188618663384178,1.281331741519259,0.8553195198012367,0.5830049035003984,1.134590273106508,0.6419350687294787,-0.0282156935840173,0.03485364731738211,0.3708247022535199,0.05360844161448222,-0.4874441567131287,-0.5421486560328896,-0.09029661544523791,799.4139194139194,803.4432234432235,792.5641025641025,781.2820512820513,691.4285714285714,0.253723,0.213745,0.953918,5.495453,-5.682373,-0.964508,1,1,1,1,1,30.000000
2021-11-27 18:54:04.865,,,,,,,,,,,,,,,,,,,,,,,,,,,,,,,,,,,,,,/muse/elements/blink
2021-11-27 18:54:05.553,1.525800351221356,1.283046777408084,0.897571882097418,1.636266417166396,1.397468158116387,1.182824805078767,0.6200830826405955,1.441796241975102,1.482025769405489,0.8807396793427326,0.5630293070045749,1.528823953227933,0.5916091862226487,0.06336576648366589,0.09617848183851559,0.3454957613965829,0.1300250120076956,-0.7366148810379547,-0.5056323498095366,-0.08766611222279119,793.7728937728938,787.7289377289378,798.6080586080586,776.0439560439561,853.0036630036631,0.257263,0.197998,0.949341,3.544006,-4.134674,-2.347717,1,1,1,1,1,30.000000
2021-11-27 18:54:06.551,1.235911108770295,1.162309565524607,0.9999248177388232,1.337843227491792,1.072469287530374,0.9752277952445939,0.6724270424139089,1.169959588396287,1.442893996513247,0.8591679275139229,0.5218331870540961,1.519593240643883,0.3949259912700404,0.1354674458573398,0.07236957634892274,0.2656343482375704,0.1645796668094751,-0.4483554048303572,-0.5108417853190277,-0.2471260248334226,799.0109890109891,794.981684981685,795.3846153846154,783.6996336996338,601.978021978022,0.256592,0.206177,0.954102,5.001984,-5.996399,-1.637421,1,1,1,1,1,30.000000
2021-11-27 18:54:07.028,,,,,,,,,,,,,,,,,,,,,,,,,,,,,,,,,,,,,,/muse/elements/blink
2021-11-27 18:54:07.551,0.2770455486972431,1.305389025117856,1.112113003602818,0.8654602775246666,0.5407860553815592,1.25333792992564,0.6703020211836082,0.6826064950645495,0.7544764226541799,1.090748205212701,0.5291176010415768,1.018288361119265,0.2584260132161831,0.1082173803941068,0.01609077998351285,0.2756118903410761,0.1012938556611671,-0.2898297898219146,-0.5488814800598374,-0.1375365814141155,796.5934065934066,791.3553113553114,789.7435897435897,795.3846153846154,842.5274725274726,0.261719,0.203125,0.952576,4.179535,-5.241241,-2.392578,1,1,1,1,1,30.000000
2021-11-27 18:54:08.551,0.4626325238224513,1.151441639493039,0.9449425532496033,0.5887492535025715,0.4637639300409697,1.174397754312978,0.6852728946540022,0.3891051467303882,0.7282391813633324,1.078234688843626,0.6410840333597169,0.735232757309544,0.5257948324927559,0.1261435156875682,-0.001064710297743618,0.2156257299136722,-0.05467677149595351,-0.2828391361157166,-0.4215152267230782,-0.06199670882833638,790.1465201465202,799.0109890109891,792.1611721611722,782.0879120879121,711.5750915750916,0.260803,0.229065,0.955505,4.613190,-5.301056,-2.549591,1,1,1,1,1,30.000000
2021-11-27 18:54:08.853,,,,,,,,,,,,,,,,,,,,,,,,,,,,,,,,,,,,,,/muse/elements/blink
2021-11-27 18:54:09.550,0.5738132612889363,1.343930191409244,1.151780618418779,0.9314959720942657,0.513495269325409,1.164120639174421,0.6747773288502362,0.6395573523301825,0.8128028116345278,0.9898739032170117,0.5722328145094642,0.8786691306866657,0.5247654845108722,0.09581448260168832,0.1522523065298245,0.2711881937499643,-0.06221392076091045,-0.4166568933841174,-0.3934919873063651,-0.02609162242413577,792.967032967033,790.1465201465202,799.0109890109891,789.7435897435897,662.014652014652,0.264709,0.216553,0.952820,3.701019,-4.097290,-2.235565,1,1,1,1,1,30.000000
2021-11-27 18:54:09.896,,,,,,,,,,,,,,,,,,,,,,,,,,,,,,,,,,,,,,/muse/elements/blink
2021-11-27 18:54:10.551,0.6122140446849988,1.431808583615327,0.8436068167664685,1.176605531947242,0.4764606324644802,1.335386743917879,0.2922131062931474,0.8562668649716954,0.7681653835264984,0.9751982673675492,0.1746733190660341,0.8672370716321083,0.4874893337898186,0.1636569176472161,0.1343583678607133,0.380807416112691,-0.031200571491221,-0.3836382621962134,-0.3586087375184622,0.003665868069854056,827.2161172161173,783.2967032967033,788.9377289377289,818.3516483516484,721.6483516483516,0.270752,0.213379,0.952393,4.501038,-3.775787,-2.183228,1,1,1,1,1,30.000000
2021-11-27 18:54:10.603,,,,,,,,,,,,,,,,,,,,,,,,,,,,,,,,,,,,,,/muse/elements/blink
2021-11-27 18:54:11.558,0.6122140446849988,1.338070736985444,0.9383759980840257,1.176605531947242,0.4764606324644802,1.168519306457448,0.4751856166015189,0.8562668649716954,0.7681653835264984,0.630452364244421,0.3720151537786661,0.8672370716321083,0.4874893337898186,0.05514934773649079,0.02639898190839677,0.380807416112691,-0.031200571491221,-0.4268460510722308,-0.6612499088744526,0.003665868069854056,792.1611721611722,787.7289377289378,794.1758241758242,782.4908424908425,691.4285714285714,0.265625,0.211609,0.959961,2.871094,-2.758942,1.226196,1,2,1,1,2,35.000000
2021-11-27 18:54:11.896,,,,,,,,,,,,,,,,,,,,,,,,,,,,,,,,,,,,,,/muse/elements/blink
2021-11-27 18:54:12.427,,,,,,,,,,,,,,,,,,,,,,,,,,,,,,,,,,,,,,/muse/elements/blink
2021-11-27 18:54:12.551,0.6122140446849988,1.365195312215133,0.6694407963512623,1.176605531947242,0.4764606324644802,0.7833215363024905,0.3925081458425573,0.8562668649716954,0.7681653835264984,0.6681824039767821,0.1608475307260657,0.8672370716321083,0.4874893337898186,-0.06389001178862105,0.01456654041757705,0.380807416112691,-0.031200571491221,-0.4178322212711925,-0.6015453927981627,0.003665868069854056,808.6813186813187,788.5347985347986,796.996336996337,807.4725274725275,783.2967032967033,0.222412,0.189880,0.954773,7.529144,-5.839386,-2.990723,1,2,1,1,2,35.000000
2021-11-27 18:54:13.556,0.6122140446849988,1.747333126468382,0.7071140425697173,1.176605531947242,0.4764606324644802,1.015308389843594,0.3767513544383364,0.8562668649716954,0.7681653835264984,0.9079956080795394,-0.09930823991655832,0.8672370716321083,0.4874893337898186,0.1089131188826062,-0.01331290937713291,0.380807416112691,-0.031200571491221,-0.3527181936867611,-0.4887661503597812,0.003665868069854056,793.7728937728938,799.0109890109891,796.1904761904763,777.6556776556777,691.025641025641,0.286194,0.204407,0.964661,3.686066,-2.370148,7.671204,1,2,1,1,2,35.000000
2021-11-27 18:54:13.831,,,,,,,,,,,,,,,,,,,,,,,,,,,,,,,,,,,,,,/muse/elements/blink
2021-11-27 18:54:14.551,0.6122140446849988,1.446425101561644,0.6265413593885205,1.176605531947242,0.4764606324644802,0.7265924129938401,0.1061051370864367,0.8562668649716954,0.7681653835264984,0.1837999071569174,0.2422314491376948,0.8672370716321083,0.4874893337898186,0.1768506464213842,-0.01279447543979356,0.380807416112691,-0.031200571491221,-0.4404679436532223,-0.5123231944750561,0.003665868069854056,796.996336996337,791.7582417582418,804.2490842490843,787.3260073260074,959.3772893772895,0.049988,0.025635,0.995483,-5.218811,-2.183228,-8.134766,1,2,1,1,2,35.000000
2021-11-27 18:54:14.860,,,,,,,,,,,,,,,,,,,,,,,,,,,,,,,,,,,,,,/muse/elements/blink
2021-11-27 18:54:15.551,0.6122140446849988,1.624251942174796,1.835040625532394,1.176605531947242,0.4764606324644802,0.9266288331142748,1.049767565525826,0.8562668649716954,0.7681653835264984,0.1929528999610497,0.1834944310613787,0.8672370716321083,0.4874893337898186,0.196701691920262,0.1927425831695955,0.380807416112691,-0.031200571491221,-0.4775473160764709,-0.07960213398022005,0.003665868069854056,792.5641025641025,790.5494505494506,797.3992673992674,790.1465201465202,762.3443223443223,0.250732,-0.010864,0.970093,4.643097,-8.366547,-4.059906,1,2,1,1,2,35.000000
2021-11-27 18:54:16.260,,,,,,,,,,,,,,,,,,,,,,,,,,,,,,,,,,,,,,/muse/elements/blink
2021-11-27 18:54:16.553,0.6122140446849988,1.124497283931802,1.662304015064236,1.176605531947242,0.4764606324644802,0.8648832342740423,0.8955454892419837,0.8562668649716954,0.7681653835264984,0.9684796949729304,0.2851402356214807,0.8672370716321083,0.4874893337898186,-0.05230504767265351,0.105825427500139,0.380807416112691,-0.031200571491221,-0.4666049394251157,-0.3162356674035002,0.003665868069854056,809.0842490842491,801.025641025641,789.3406593406594,811.5018315018315,807.4725274725275,0.185181,-0.000732,0.981567,1.988831,-0.216827,11.110535,1,2,1,1,2,35.000000
2021-11-27 18:54:17.551,0.6122140446849988,1.537275534135008,0.8477602662998511,1.529566444974646,0.4764606324644802,1.165470012472689,0.1051350965249785,1.072024699121732,0.7681653835264984,1.116032334705121,0.1815663193766675,0.9237639200043064,0.4874893337898186,0.05353813970578715,-0.1432608499644881,0.6664806661051723,-0.031200571491221,-0.3972044679883795,-0.612148759761346,0.0201806256953088,793.7728937728938,790.5494505494506,796.1904761904763,761.1355311355312,709.5604395604396,0.160950,0.053162,0.973450,10.183411,-4.411316,-22.236023,1,1,1,1,1,35.000000
2021-11-27 18:54:18.551,0.6122140446849988,0.8949115622734819,1.05931576093641,1.788793240861815,0.4764606324644802,0.5957133882401885,0.702511749697181,1.128514864393831,0.7681653835264984,0.6928846668402802,0.765817112685261,1.112006364555997,0.4874893337898186,0.1687488153015758,0.1200615147150819,0.6996714368506037,-0.031200571491221,-0.2771610268054443,-0.4712380243630926,0.1461164620457912,865.8974358974359,842.1245421245421,750.2564102564103,829.6336996336996,622.1245421245421,0.166504,0.075256,0.970947,10.946045,-10.048828,-31.410065,1,1,1,1,1,35.000000
2021-11-27 18:54:19.551,0.6122140446849988,1.531508096733403,1.821815754389243,1.836239364885138,0.4764606324644802,0.5595115237237661,0.8019267639743077,1.11327962319686,0.7681653835264984,0.449865832174725,0.8116198693668644,1.097642219350339,0.4874893337898186,0.2515662869886651,0.2769491100236661,0.668184697461466,-0.031200571491221,-0.1485291903226252,-0.3281232181851368,0.1337979137771183,810.6959706959707,786.9230769230769,802.6373626373627,800.6227106227107,884.0293040293041,0.230896,0.091492,0.981445,9.353485,-5.555267,3.633728,1,1,1,1,1,35.000000
2021-11-27 18:54:20.240,,,,,,,,,,,,,,,,,,,,,,,,,,,,,,,,,,,,,,/muse/elements/blink
2021-11-27 18:54:20.551,1.179634017802128,1.404143145457374,1.444030186606602,1.836239364885138,0.696401581599849,0.862354165319043,0.6618611703129816,1.11327962319686,0.9558965023761312,0.5767831830944044,0.7144671870054433,1.097642219350339,0.738074665369805,0.1174945511143864,0.1696026552604246,0.668184697461466,0.2429857246844171,-0.227532389674276,-0.4605278133652405,0.1337979137771183,746.6300366300367,791.3553113553114,803.8461538461539,758.3150183150184,657.5824175824176,0.293579,0.087646,0.975037,4.912262,-7.932892,-7.416992,1,1,1,1,1,35.000000
2021-11-27 18:54:21.551,1.42972999051976,1.387985304189497,0.5169368935178548,1.259971881007244,0.6157678239091238,0.8955551446090495,0.4097440705100214,0.7325971340727627,0.8568383926631274,0.5422761260753924,0.6057245768051007,0.160464519277293,0.7905613514216333,0.04559732893923653,0.02748241784827245,0.7247450279425292,0.2682959598250568,-0.3215079824144196,-0.7547389644677106,0.1923564307112586,796.996336996337,798.2051282051282,790.1465201465202,782.4908424908425,709.9633699633699,0.260559,0.085022,0.972534,4.246826,-2.594452,-0.239258,1,1,1,1,1,35.000000
2021-11-27 18:54:22.067,,,,,,,,,,,,,,,,,,,,,,,,,,,,,,,,,,,,,,/muse/elements/blink
2021-11-27 18:54:22.551,1.34107286843356,0.8415276883174105,0.1066939171421204,1.04405315133487,0.2683351178255465,0.8440714113197056,-0.1186116509759532,0.585546324387285,0.8400962515661813,0.9092764219667345,0.1511441985409114,0.3488915553892508,0.9030500408048133,0.164849541059511,-0.1601746098167948,0.6938661702268363,0.4267257247472607,-0.5197041719593739,-0.7248120536174352,0.3201840395807397,797.8021978021978,793.7728937728938,799.4139194139194,781.2820512820513,657.1794871794872,0.256897,0.076294,0.970459,3.319702,-4.658051,-0.239258,1,1,1,1,1,35.000000
2021-11-27 18:54:22.863,,,,,,,,,,,,,,,,,,,,,,,,,,,,,,,,,,,,,,/muse/elements/blink
2021-11-27 18:54:23.551,1.139584839266214,1.690297224302961,0.009691037820100855,0.5954250208884947,0.2205542798677763,1.2529320614515,-0.1093585256600376,0.3615367798203722,0.8179285246898388,0.9092764219667345,0.03778688565819041,0.2806502848371371,0.946524831434436,0.2369785177692009,-0.2705573190122952,0.6606225813145363,0.5114923558015018,-0.3679799094404105,-0.6596811717610785,0.4188181968321513,824.3956043956044,772.8205128205128,796.996336996337,817.5457875457876,739.3772893772893,0.258240,0.076233,0.974121,4.388885,-5.876770,-2.265472,1,1,1,1,1,35.000000
2021-11-27 18:54:23.566,,,,,,,,,,,,,,,,,,,,,,,,,,,,,,,,,,,,,,/muse/elements/blink
2021-11-27 18:54:24.551,1.139584839266214,1.85152304113299,0.7755409571255416,0.5954250208884947,0.2205542798677763,1.309972481095335,0.6987759425937177,0.3615367798203722,0.8179285246898388,0.8923554821906674,0.420295578182129,0.2806502848371371,0.946524831434436,0.06726539659025782,0.01864373142585243,0.6606225813145363,0.5114923558015018,-0.394360645534074,-0.4749257251940999,0.4188181968321513,805.8608058608058,800.6227106227107,798.2051282051282,785.7142857142858,695.0549450549451,0.268921,0.078674,0.972351,4.254303,-5.031891,-2.527161,1,1,1,1,1,35.000000
2021-11-27 18:54:25.558,0.7386021492643668,1.125243685537294,0.628707097167707,0.4326335589742583,0.6943236587339244,0.6598491522245463,0.5228874702096726,0.400592651214755,1.320305661354196,0.6868161365966803,0.5290425022957812,0.941437617336186,0.5736479727298192,0.04929807959929846,0.03533843654518574,0.5387942515328364,-0.08755304501128268,-0.5280070633986885,-0.4662803743259832,-0.02008967230104103,818.7545787545788,770.8058608058608,781.2820512820513,802.2344322344322,746.2271062271062,0.269043,0.082947,0.972534,5.308533,-4.314117,-1.181335,1,1,1,1,1,35.000000
2021-11-27 18:54:25.726,,,,,,,,,,,,,,,,,,,,,,,,,,,,,,,,,,,,,,/muse/elements/blink
2021-11-27 18:54:26.557,0.4725735223505536,1.208851832591171,0.7191368610570272,1.39835153813275,0.5129422760136783,0.9080719573605799,0.5812622429002179,1.244446405614987,1.284532726459951,0.8097746953702279,0.6728065898700691,1.380934843276241,0.3891857587127742,0.07262057513563498,0.02365566745334453,0.5943574419766139,0.001442823449710869,-0.3914304889632269,-0.4213720842679373,-0.1146093158322763,799.0109890109891,798.6080586080586,792.1611721611722,786.9230769230769,672.4908424908425,0.263367,0.087830,0.974609,5.899200,-3.087921,-1.413116,1,1,1,1,1,35.000000
2021-11-27 18:54:26.947,,,,,,,,,,,,,,,,,,,,,,,,,,,,,,,,,,,,,,/muse/elements/blink
2021-11-27 18:54:27.551,0.4088404897650451,1.387919359256489,1.098083926622222,1.494622434926478,0.3639090260954038,1.068115260737833,0.7413099597345534,1.321085443864258,0.9666050328564568,0.8509714649035663,0.6445995647842978,1.323744670137458,0.3165970259660599,0.03012159153792287,-0.02926057860621753,0.5783101899946248,0.1602725880442879,-0.3764978040501213,-0.3470450916097434,-0.09407339761969516,794.981684981685,799.8168498168499,797.3992673992674,788.1318681318681,736.959706959707,0.260376,0.093872,0.980835,3.125305,-4.740295,-1.839294,1,1,1,1,1,35.000000
2021-11-27 18:54:28.162,,,,,,,,,,,,,,,,,,,,,,,,,,,,,,,,,,,,,,/muse/elements/blink
2021-11-27 18:54:28.553,0.3701261191191722,1.417130225768916,0.9321545839255174,0.912007977595532,0.293161717833365,1.187003599122792,0.639386125089215,0.5513775127943502,0.9128821856942968,0.7527664558621774,0.5107117014292325,0.7062474320085029,0.4563736967205498,0.1213145425192214,0.02483477406437464,0.4574143932117307,0.06796274365467808,-0.3092964357734778,-0.3762260262978792,-0.01337102172101154,788.1318681318681,789.3406593406594,794.981684981685,787.7289377289378,870.3296703296703,0.261108,0.086975,0.970703,4.747772,-4.897308,-1.659851,1,1,1,1,1,35.000000
2021-11-27 18:54:29.404,,,,,,,,,,,,,,,,,,,,,,,,,,,,,,,,,,,,,,/muse/elements/blink
2021-11-27 18:54:29.551,0.3701261191191722,1.36194624691992,0.8365483737247686,0.912007977595532,0.293161717833365,1.110390515086897,0.5148274494059527,0.5513775127943502,0.9128821856942968,0.5747116049034217,0.4524315999116024,0.7062474320085029,0.4563736967205498,0.133099856780761,-0.04150419886102334,0.4574143932117307,0.06796274365467808,-0.3630763966207184,-0.2841589922758399,-0.01337102172101154,743.4065934065934,808.6813186813187,800.2197802197802,786.1172161172161,647.1062271062272,0.237610,0.074890,0.965271,3.229980,1.958923,-0.067291,1,1,1,1,1,35.000000
2021-11-27 18:54:30.550,0.3701261191191722,1.574359364564469,0.1809557565393114,1.303822480008016,0.293161717833365,1.125748496755581,-0.03256114808340345,0.8769114514205043,0.9128821856942968,0.9296237375163002,0.1224870034322161,0.6744150536534934,0.4563736967205498,0.5311138662484644,-0.05559232676147215,0.4003103452000309,0.06796274365467808,-0.2888149464339246,-0.2392579240068966,0.2645371162073931,784.1025641025641,779.2673992673992,795.7875457875458,795.3846153846154,1010.952380952381,0.234131,0.116943,0.984802,5.727234,-8.366547,1.457977,1,2,1,1,2,35.000000
2021-11-27 18:54:31.557,0.9469913996020846,1.132312562205833,1.161157821751493,1.37697321179666,0.4772194805607061,0.6395715920169552,0.5209782462379957,0.9981058154068635,0.5632986085724976,0.7772083630153875,0.3203039965989076,0.8592556220880375,0.5554974342153851,0.1420084979692244,0.2542019417442196,0.3375076380382788,0.2366772085452264,-0.4325311575102555,-0.191037829696206,0.1542048686293948,786.5201465201466,784.1025641025641,821.1721611721612,793.7728937728938,747.8388278388279,0.251892,0.067017,0.977539,1.929016,-3.379517,3.013153,1,1,1,1,1,35.000000
2021-11-27 18:54:32.018,,,,,,,,,,,,,,,,,,,,,,,,,,,,,,,,,,,,,,/muse/elements/blink
2021-11-27 18:54:32.562,0.4323422719344971,0.9412009796043183,1.40478676493248,0.9238185536480302,0.2369967505087886,0.6276981051106926,0.7276942175874489,0.8732595271021881,0.6771686458264776,0.359107907884929,0.3601881508960881,0.8339817731817969,0.5204366234472358,0.398550788116024,0.2470130396547602,0.3060821848785176,0.2761521528751312,0.03513079529772083,-0.437502871636933,0.03098029749103123,781.2820512820513,788.1318681318681,813.919413919414,780.0732600732601,682.5641025641025,0.235779,-0.081116,0.993286,0.336456,-3.932800,-4.344025,1,1,1,1,1,35.000000
2021-11-27 18:54:33.348,,,,,,,,,,,,,,,,,,,,,,,,,,,,,,,,,,,,,,/muse/elements/blink
2021-11-27 18:54:33.550,0.4969423608968355,1.204218753211843,1.604346062576204,0.7265963953812327,0.2549107273960726,0.8306530536895876,1.171288834935182,0.8545700003816606,0.6738150320441136,0.9341664865551405,0.8386425965047983,0.8220140542425989,0.4737601261884914,0.6201252851446181,0.4484642080235344,0.3092926797045149,0.2389719710278292,0.5301392753505302,0.2427692084031065,-0.003809353445597595,788.5347985347986,781.2820512820513,792.967032967033,786.9230769230769,782.4908424908425,0.198425,-0.104980,0.992554,6.893616,-2.923431,3.970184,1,1,1,1,1,35.000000
2021-11-27 18:54:34.552,0.4969423608968355,1.270971693536001,1.571144041001685,1.36865770097371,0.2549107273960726,0.8574224303792596,1.151612287758831,0.6706197552559543,0.6738150320441136,0.8417911156846342,0.9477799840425567,0.8067675534581068,0.4737601261884914,0.5019382198176633,0.3309414765765699,0.7100946457646143,0.2389719710278292,0.3303794341697791,-0.04158505429762025,0.2333406068105049,801.4285714285714,793.7728937728938,788.1318681318681,782.893772893773,706.7399267399268,0.219971,-0.109863,0.983582,3.244934,-7.805786,-3.117828,1,2,1,1,2,35.000000
2021-11-27 18:54:35.074,,,,,,,,,,,,,,,,,,,,,,,,,,,,,,,,,,,,,,/muse/elements/blink
2021-11-27 18:54:35.550,1.212859306931025,1.185291442654471,1.009041063452329,1.224973939927483,0.52765759168937,1.122272089858743,0.7046520416044156,0.5181122187345856,0.5765466711814587,0.9445106931468431,0.5441782378068143,0.7087984689921458,0.2020059503238145,0.2006611042634178,0.09019683395281526,0.4476149339588869,-0.2051333158941297,-0.3170885006947669,-0.378039610990619,0.2378729680962947,811.9047619047619,797.3992673992674,796.5934065934066,790.5494505494506,695.4578754578755,0.178894,-0.111938,0.985535,3.775787,0.157013,0.807495,1,1,1,1,1,35.000000
2021-11-27 18:54:36.550,0.8478378485105069,1.144846858793956,0.8287763833955833,0.5985322158780648,0.5324657696405177,1.105167145587819,0.4529597862232242,0.2058139846683267,0.5235500967213826,0.9445106931468431,0.3240923186241667,0.4698339963309923,0.4718023419131054,0.1616432997130239,0.01313178746623117,0.4783615533477453,0.493687659521707,-0.384842417977605,-0.3785404953853146,0.3730114658989912,801.4285714285714,782.893772893773,797.3992673992674,795.7875457875458,754.2857142857143,0.189270,-0.146240,0.985046,4.104767,-6.355286,-3.566437,1,1,1,1,1,35.000000
2021-11-27 18:54:37.514,,,,,,,,,,,,,,,,,,,,,,,,,,,,,,,,,,,,,,/muse/elements/blink
2021-11-27 18:54:37.550,1.057261196415963,0.7810654244417899,1.184635955307853,0.8633008184715927,0.6259575915602135,0.3110826764869941,0.5550844664400199,0.4543708933228083,1.007058149269392,0.646931858983964,0.5828555562259619,0.7677446481833178,0.4718005732193476,0.1372559688330729,-0.06418730798374385,0.4469708340823069,0.2539883414388495,-0.3209565604862816,-0.3897680844074513,0.2897235688358807,820.3663003663004,796.1904761904763,783.6996336996338,810.2930402930403,598.3516483516484,0.200134,-0.165161,0.973206,1.211243,-5.338440,-5.136566,1,1,1,1,1,35.000000
2021-11-27 18:54:38.556,0.7283494936528043,1.291968331805481,1.588091370328761,1.008548042356423,0.6403797456546412,1.033207906354075,1.188262710849606,0.5258590169208238,0.7136994623641228,0.8562418795906021,1.082447212156399,0.7438786990771359,0.3296369023169975,0.2579537675985642,-0.03167922745790987,0.2861258390887099,-0.1804653403882895,-0.2292912617154056,-0.294367519108406,0.0962296035405627,805.4578754578755,799.4139194139194,798.6080586080586,793.7728937728938,676.9230769230769,0.214722,-0.169495,0.978333,4.164581,-5.031891,-2.175751,1,1,1,1,1,35.000000
2021-11-27 18:54:39.550,0.4424294730292818,0.6428900473233348,0.8719633865393169,0.746530236106796,0.1394275625917397,0.3736773139075596,0.5193888272321293,0.359597586760112,0.7468546383572712,0.5936172273024124,0.6177040442864647,0.6988508695528843,0.3341238027528928,0.1052074240566743,-0.05924807098856198,0.4989604737042025,-0.1393490370934504,-0.294072936590126,-0.5128741556474917,-0.05879933246825803,805.8608058608058,774.4322344322345,789.3406593406594,802.2344322344322,824.7985347985348,0.218811,-0.181763,0.969971,1.801910,-6.332855,-3.215027,1,1,1,1,1,35.000000
2021-11-27 18:54:39.617,,,,,,,,,,,,,,,,,,,,,,,,,,,,,,,,,,,,,,/muse/elements/blink
2021-11-27 18:54:40.545,,,,,,,,,,,,,,,,,,,,,,,,,,,,,,,,,,,,,,/muse/elements/blink
2021-11-27 18:54:40.555,0.5233485456677456,1.334360288881644,1.376770876727616,0.8936827955993141,0.1874298222103466,1.179510881032175,1.044998980103129,0.4626224254337116,0.6147092793717885,1.030978334138236,0.6962463968474653,0.6575763329436899,0.2278437628571298,0.1111496017725546,0.1695171074295434,0.5775722925014795,-0.1310860670846349,-0.3971202876340237,-0.505022404934254,-0.1285733574451195,805.8608058608058,789.3406593406594,786.5201465201466,791.3553113553114,650.3296703296703,0.213013,-0.181519,0.980957,4.224396,-5.495453,-1.562653,1,1,1,1,1,35.000000
2021-11-27 18:54:41.550,0.555631826578026,1.567258725293435,1.442330658607038,0.9752300150893484,0.1678481209294133,1.211288171927378,0.9693085466320529,0.5014949130691074,0.5767665946129241,0.994205309775384,0.684147615200777,0.6088510292772242,0.2282753912804188,0.08378025670066777,0.143969241098634,0.557969381633259,-0.09412351714559027,-0.4373244507428978,-0.4878144175761209,-0.1388345879914321,805.8608058608058,833.6630036630037,760.3296703296703,765.1648351648352,695.4578754578755,0.216309,-0.182617,0.971436,4.747772,-4.987030,-2.676697,1,1,1,1,1,35.000000
2021-11-27 18:54:42.549,0.4127416590342649,0.9941495402287827,1.144370139997018,0.5056058748989214,0.2043942590334361,0.6136705095043249,0.4956883349406344,0.6241061676629002,0.4068429682509215,0.7711739486168776,0.529715573181636,0.7091867998539397,0.5006582188630084,0.1039769091690952,0.07039800644886374,0.4671215575956222,-0.113227378760581,-0.3503797401350792,-0.5826032318607898,-0.1757664873479326,800.6227106227107,784.1025641025641,787.7289377289378,798.2051282051282,891.2820512820513,0.239136,-0.189087,0.967468,4.732819,-5.891724,-1.824341,1,1,1,1,1,35.000000
2021-11-27 18:54:42.992,,,,,,,,,,,,,,,,,,,,,,,,,,,,,,,,,,,,,,/muse/elements/blink
2021-11-27 18:54:43.555,0.5172453409564368,1.218262687946806,1.22745739582026,0.461330777755733,0.271707888906188,1.05529980567526,0.854956719942936,0.7162903976046251,0.4813029215773286,0.9239373526761991,0.7740875309818847,0.6416622153739489,0.3911572588870065,0.05238038730246295,0.02661051978672963,0.3019539948967953,-0.08900222065224234,-0.5194809245689846,-0.4352569907819051,-0.08343515747051479,806.2637362637363,794.5787545787546,799.0109890109891,803.4432234432235,645.8974358974359,0.232056,-0.188538,0.961182,6.968384,-1.487885,2.228088,1,1,1,1,1,35.000000
2021-11-27 18:54:44.296,,,,,,,,,,,,,,,,,,,,,,,,,,,,,,,,,,,,,,/muse/elements/blink
2021-11-27 18:54:44.550,0.4269028582511727,1.234120131467418,1.128561263241511,0.684317640895534,0.2807729214682586,1.078455773679438,0.8741800367301501,0.7356265609202534,0.4362240779511569,0.8978721244149857,0.7712388609671956,0.46538907556085,0.1709573399739349,0.05421787809173406,0.02489978726382468,0.285456666222306,-0.1718713013631437,-0.5353007301451819,-0.5158717047618734,-0.113543228948061,795.3846153846154,794.1758241758242,797.3992673992674,792.1611721611722,824.7985347985348,0.217102,-0.163086,0.978699,6.385193,-6.213226,-1.734619,1,1,1,1,1,35.000000
2021-11-27 18:54:45.513,,,,,,,,,,,,,,,,,,,,,,,,,,,,,,,,,,,,,,/muse/elements/blink
2021-11-27 18:54:45.550,0.6051427274726968,1.209769612779677,1.19701559523564,0.8073561383580039,0.4205845789252841,0.9837029249132924,0.7652764433511613,0.697669293218835,0.3641533052577505,0.9354916009339372,0.7918168029978193,0.7513808209497926,0.4029444766477612,0.2138571012813809,0.1164436292793906,0.4366391306324384,-0.1247594150763288,-0.416371708551676,-0.3781231891065735,-0.1723127331005864,828.8278388278388,775.6410256410256,786.5201465201466,807.0695970695971,788.1318681318681,0.228821,-0.180969,0.970520,2.272949,-8.299255,-5.555267,1,1,1,1,1,35.000000
2021-11-27 18:54:46.313,,,,,,,,,,,,,,,,,,,,,,,,,,,,,,,,,,,,,,/muse/elements/blink
2021-11-27 18:54:46.550,0.6051427274726968,1.354940861994895,1.134618485504805,0.8073561383580039,0.4205845789252841,1.276465894212588,0.6954170655862275,0.697669293218835,0.3641533052577505,1.013927812057939,0.7610502221516133,0.7513808209497926,0.4029444766477612,0.1511550547930575,0.06408078810131904,0.4366391306324384,-0.1247594150763288,-0.3558566339982444,-0.4833652730732784,-0.1723127331005864,794.981684981685,800.2197802197802,792.5641025641025,782.4908424908425,668.4615384615385,0.221008,-0.165649,0.975769,4.747772,-5.532837,-1.674805,1,1,1,1,1,35.000000
2021-11-27 18:54:47.550,0.5432334423259004,1.399464616659282,0.9841558649428678,0.8685238379285728,0.2616398745299559,1.211378174455235,0.7051167643454865,0.1137666918817384,0.3962664418007473,0.9761629704623781,0.6504005604749409,0.3789580091640133,0.3966627058354811,0.08755970450207945,0.05953579327636367,0.396367348657154,-0.1579449885206695,-0.3862351532469998,-0.4143178278457232,0.1519503457067465,663.6263736263736,845.3479853479854,835.2747252747253,660,664.4322344322344,0.216370,-0.168884,0.975098,5.009460,-5.211334,-0.613098,1,2,1,1,2,35.000000
2021-11-27 18:54:47.766,,,,,,,,,,,,,,,,,,,,,,,,,,,,,,,,,,,,,,/muse/elements/blink
2021-11-27 18:54:48.550,0.5432334423259004,1.233551379051038,1.254665949185144,0.8685238379285728,0.2616398745299559,0.9544649975264096,0.8464344930513967,0.1137666918817384,0.3962664418007473,0.6235104756237693,0.5187014461576785,0.3789580091640133,0.3966627058354811,0.1514823010408426,0.04005100867296493,0.396367348657154,-0.1579449885206695,-0.3558961991023202,-0.5903359002399505,0.1519503457067465,802.2344322344322,780.8791208791209,811.0989010989011,797.3992673992674,715.2014652014652,0.221375,-0.163513,0.976013,4.426270,-4.471130,-2.534637,1,1,1,1,1,35.000000
2021-11-27 18:54:49.550,0.3010025208430344,1.053169770435733,1.020137374708236,0.7529702780139954,0.01871305452863669,0.7650388920320027,0.6615263480331827,0.4307316038359943,0.2961872097357068,0.5051948400457769,0.5485375106056742,0.7082546599012184,0.4236237815936607,0.07634634059357738,0.05367632917424285,0.457032711060443,-0.01087490559878531,-0.4556432488801212,-0.4651181877501409,-0.2106751243196466,737.3626373626374,839.7069597069598,806.6666666666667,718.021978021978,592.7106227106227,0.233398,-0.160339,0.975281,4.373932,-4.553375,-3.028107,1,1,1,1,1,35.000000
2021-11-27 18:54:49.690,,,,,,,,,,,,,,,,,,,,,,,,,,,,,,,,,,,,,,/muse/elements/blink
2021-11-27 18:54:49.984,,,,,,,,,,,,,,,,,,,,,,,,,,,,,,,,,,,,,,/muse/elements/blink
2021-11-27 18:54:50.550,0.5972774334609462,1.421991602808526,1.253450035167432,0.9115016694354834,0.2198330356479485,1.284418302543777,0.8256890903518028,0.4789506508822951,0.5514784893091224,0.999948993496816,0.5794087826414287,0.845382413009377,0.4959216480172893,0.04292140671199749,0.06604488160246821,0.6494931770614734,-0.08210284648690287,-0.2819738013076052,-0.5210947661033632,-0.1536186153279658,802.6373626373627,801.4285714285714,799.8168498168499,798.2051282051282,749.8534798534798,0.237305,-0.169556,0.972168,4.239349,-4.792633,-1.958923,1,1,1,1,1,35.000000
2021-11-27 18:54:50.827,,,,,,,,,,,,,,,,,,,,,,,,,,,,,,,,,,,,,,/muse/elements/blink
2021-11-27 18:54:51.423,,,,,,,,,,,,,,,,,,,,,,,,,,,,,,,,,,,,,,/muse/elements/blink
2021-11-27 18:54:51.550,0.7776406713894954,1.493224995857324,1.206671939676407,1.042172568925121,0.3481228530139398,1.238302042849722,0.9152475981765472,0.5423780932535671,0.5371927625815643,1.019270242395691,0.721771569583577,0.845382413009377,0.551655382402651,0.08472703537325735,-0.09451003438038748,0.7455810752126982,-0.08640525914433074,-0.4599572331007372,-0.6076208278691776,-0.08204950555167555,807.0695970695971,796.996336996337,799.8168498168499,801.025641025641,695.8608058608058,0.228210,-0.172974,0.972778,4.381409,-5.226288,-2.168274,1,1,1,1,1,35.000000
2021-11-27 18:54:52.557,0.7776406713894954,1.338120969677281,1.19334025127829,1.042172568925121,0.3481228530139398,1.077783280919117,0.8914559245250949,0.5423780932535671,0.5371927625815643,0.8531699662681428,0.7623452479245582,0.845382413009377,0.551655382402651,0.02211866560325897,-0.02244861826258057,0.7455810752126982,-0.08640525914433074,-0.4344230991545059,-0.4349711560697132,-0.08204950555167555,798.6080586080586,800.2197802197802,799.0109890109891,784.1025641025641,696.2637362637363,0.242676,-0.172546,0.975159,4.792633,-5.256195,-2.138367,1,2,1,1,2,35.000000
2021-11-27 18:54:53.554,0.4058387252944456,-0.01890930955310082,0.09118070936253393,0.4859721242349527,0.5914251745115667,0.1276517937407056,0.03235138075028345,0.5241838548536326,1.111027259983732,0.3574427831393774,0.2820477894177482,0.9989412226929894,0.2472394858274701,0.02937020128889917,-0.1081168318170964,0.2052823131361018,0.03217337813885583,-0.3252269268304518,-0.3538345175792755,-0.06816538465755795,793.3699633699634,791.7582417582418,788.9377289377289,777.2527472527473,680.5494505494506,0.240234,-0.175110,0.971252,4.807587,-4.844971,-2.930908,1,1,1,1,1,35.000000
2021-11-27 18:54:54.475,,,,,,,,,,,,,,,,,,,,,,,,,,,,,,,,,,,,,,/muse/elements/blink
2021-11-27 18:54:54.550,0.4119663038366868,0.6437742534013006,0.9105802559210553,0.4366323135246427,0.7249249470254944,0.3741661006653151,0.40646954503606,0.7391480887141597,0.7972707275881322,0.6506846097745711,0.1919660642065315,0.8203089901491309,0.3516368906711831,0.1069869865692378,-0.0897993681700812,0.335870919758705,-0.03171245717913791,-0.3660265725645749,-0.5593063520755589,-0.04293711816281228,793.3699633699634,800.2197802197802,802.6373626373627,793.3699633699634,792.967032967033,0.247681,-0.175537,0.968689,4.687958,-4.867401,-2.145844,1,1,1,1,1,35.000000
2021-11-27 18:54:54.986,,,,,,,,,,,,,,,,,,,,,,,,,,,,,,,,,,,,,,/muse/elements/blink
2021-11-27 18:54:55.476,,,,,,,,,,,,,,,,,,,,,,,,,,,,,,,,,,,,,,/muse/elements/blink
2021-11-27 18:54:55.550,0.5653240665885759,1.470784599719446,1.390312328269206,0.495281239513469,0.7929668098840985,1.231709327367845,1.029130175138339,0.8138619243481962,0.52564604254318,0.9319130658814975,0.5159838708928201,0.4282119237975898,0.4382934824962042,0.2155941808868182,-0.1429431964886597,0.4643083621049495,-0.2488511854511808,-0.4299223599618262,-0.4996147247867027,-0.08884132775427452,815.5311355311355,790.5494505494506,797.8021978021978,812.7106227106227,645.4945054945055,0.249146,-0.172485,0.961670,4.785156,-5.973969,-1.786957,1,1,1,1,1,35.000000
2021-11-27 18:54:56.314,,,,,,,,,,,,,,,,,,,,,,,,,,,,,,,,,,,,,,/muse/elements/blink
2021-11-27 18:54:56.550,0.5653240665885759,1.485337889489692,1.403754640076749,0.495281239513469,0.7929668098840985,1.316225806526274,1.206252378712117,0.8138619243481962,0.52564604254318,0.9810760350731366,0.7470797622338503,0.4282119237975898,0.4382934824962042,0.005212317738879466,-0.1451684346992574,0.4643083621049495,-0.2488511854511808,-0.5484183603295711,-0.4716756611202866,-0.08884132775427452,647.5091575091575,860.6593406593407,833.2600732600733,645.4945054945055,758.3150183150184,0.247131,-0.179688,0.969543,4.897308,-5.487976,-1.644897,1,1,1,1,1,35.000000
2021-11-27 18:54:56.822,,,,,,,,,,,,,,,,,,,,,,,,,,,,,,,,,,,,,,/muse/elements/blink
2021-11-27 18:54:57.550,0.5653240665885759,1.157512672646884,1.538536260241923,0.495281239513469,0.7929668098840985,1.026662375303152,1.230051148962806,0.8138619243481962,0.52564604254318,0.5321976120058792,0.8098158809813985,0.4282119237975898,0.4382934824962042,0.1098465154999883,0.1136405937163256,0.4643083621049495,-0.2488511854511808,-0.5928845214666328,-0.4375687265287897,-0.08884132775427452,792.1611721611722,795.7875457875458,798.6080586080586,780.4761904761905,711.978021978022,0.243958,-0.172058,0.971924,4.889832,-4.830017,-1.271057,1,2,1,1,2,35.000000
2021-11-27 18:54:58.550,0.3293501868144645,0.1882168171631735,1.175135731095161,0.2564958604355989,0.5218028010253117,0.0780985489409471,0.6219047924301303,0.2786828032805527,0.8058849094818554,0.3584235932115838,0.3716561765652875,0.7099071196130142,0.4141415035237642,0.1528859705034477,0.05276789290648905,0.3639901118852524,-0.2350867326590824,-0.4151339920845095,-0.3476344706040737,-0.1286773485530842,843.7362637362637,783.6996336996338,776.8498168498169,828.4249084249085,699.0842490842491,0.243713,-0.175232,0.972168,4.800110,-4.635620,-1.398163,1,1,1,1,1,35.000000
2021-11-27 18:54:58.649,,,,,,,,,,,,,,,,,,,,,,,,,,,,,,,,,,,,,,/muse/elements/blink
2021-11-27 18:54:59.271,,,,,,,,,,,,,,,,,,,,,,,,,,,,,,,,,,,,,,/muse/elements/blink
2021-11-27 18:54:59.550,0.3259788291728554,1.34913506957929,1.152104232001401,0.2061738077725852,0.7053479666717966,1.159424813849422,1.042607454058839,0.3924738953120094,0.8058849094818554,0.9882762959368736,0.6892836068615773,0.7099071196130142,0.5120024951622386,0.06365994040318954,0.102793627360115,0.3367042938332853,-0.266387065182985,-0.5233406396384199,-0.3986039160959505,-0.1025376353237871,790.952380952381,790.1465201465202,795.3846153846154,773.2234432234433,895.3113553113553,0.227600,-0.183655,0.967163,1.353302,-3.454285,-2.048645,1,1,1,1,1,35.000000
2021-11-27 18:55:00.046,,,,,,,,,,,,,,,,,,,,,,,,,,,,,,,,,,,,,,/muse/elements/blink
2021-11-27 18:55:00.549,0.3259788291728554,1.520604934299294,1.500356616453473,0.2061738077725852,0.7053479666717966,1.326921901449113,1.258166500011341,0.3924738953120094,0.8058849094818554,0.9515437607694331,0.816990982455488,0.7099071196130142,0.5120024951622386,-0.04138106922154374,0.05902906318409673,0.3367042938332853,-0.266387065182985,-0.5102901985313369,-0.4665743077114057,-0.1025376353237871,799.0109890109891,806.6666666666667,798.2051282051282,780.4761904761905,730.5128205128206,0.159973,-0.192627,0.978149,7.446899,-1.443024,-0.201874,1,1,1,1,1,35.000000
2021-11-27 18:55:01.558,0.6052181056717567,1.230078945313037,1.31474172914993,0.4113428362293498,-0.043497866102424,1.040748082099131,1.018339509739284,0.5245756821278439,0.5403375453374871,0.7545878018244411,0.8187375701019404,0.7011299439661803,-0.02697054377093137,-0.07562694592738101,0.1288493397985168,0.3094219955527761,-0.2202526499434719,-0.3785705785450816,-0.4115887327275167,-0.1629451979891628,800.2197802197802,808.6813186813187,792.1611721611722,784.1025641025641,672.4908424908425,0.181519,-0.185730,0.976807,5.727234,-5.076752,-3.252411,1,1,1,1,1,35.000000
2021-11-27 18:55:02.551,0.4958747946144273,1.047308063601561,1.020307546320813,0.5636583414578278,0.1426097331932404,0.5950747461673981,0.5877221879919681,0.5063855372056125,0.731943461456413,0.7855712539785482,0.5876788259183261,0.9227546084976105,0.2885075509339573,0.05952795751318539,0.1075914841913784,0.3241416027803636,-0.2190211678410406,-0.4955042590203599,-0.427933108706082,-0.1004881272873999,804.2490842490843,808.2783882783883,786.9230769230769,790.5494505494506,793.3699633699634,0.179016,-0.180725,0.982910,5.869293,-4.112244,-1.869202,1,1,1,1,1,35.000000
2021-11-27 18:55:03.387,,,,,,,,,,,,,,,,,,,,,,,,,,,,,,,,,,,,,,/muse/elements/blink
2021-11-27 18:55:03.550,0.5285266005089887,1.347427300085324,1.231255203239994,0.7208813890766744,0.698817025331071,0.9302037129279681,0.8338355900823872,0.4711395263198884,1.02170999835502,0.8235007747798962,0.6961301536281133,0.8571628417996753,0.3330404579893325,0.1339747711245672,0.05060650523248823,0.2108854983981343,-0.3055299879834062,-0.4403771113504579,-0.3888546405611123,-0.04505821211997557,802.2344322344322,782.4908424908425,795.3846153846154,798.6080586080586,662.014652014652,0.184082,-0.184509,0.973816,4.770203,-4.276733,-1.271057,1,1,1,1,1,30.000000
2021-11-27 18:55:04.502,,,,,,,,,,,,,,,,,,,,,,,,,,,,,,,,,,,,,,/muse/elements/blink
2021-11-27 18:55:04.558,0.4991287737540897,1.317795247190986,0.7282842211047124,0.537646051846164,0.850377725031966,1.258658584224699,0.5688228000385492,0.619815935756341,0.9475696605083175,0.8469265781354262,0.5295639913459642,0.7259484714596017,0.1987830481782019,0.05816847527659096,0.02931128404193536,0.1688565527114741,-0.2599068535553291,-0.407208174961167,-0.3711613207962388,-0.1793202128685471,816.7399267399268,790.1465201465202,790.5494505494506,798.2051282051282,674.1025641025641,0.182678,-0.181702,0.977905,4.650574,-4.710388,-1.555176,1,1,1,1,1,30.000000
2021-11-27 18:55:05.550,0.4991287737540897,1.178126194782809,0.7584115394383829,0.537646051846164,0.850377725031966,1.026544973206593,0.4578260691838726,0.619815935756341,0.9475696605083175,1.120892988198411,0.4362933660189831,0.7259484714596017,0.1987830481782019,0.1398756315360958,0.07632082435101493,0.1688565527114741,-0.2599068535553291,-0.3448828242066793,-0.2863116904075675,-0.1793202128685471,830.0366300366301,779.2673992673992,785.3113553113553,832.0512820512821,745.4212454212454,0.192566,-0.186340,0.982971,2.579498,-6.033783,-2.863617,1,1,1,1,1,30.000000
2021-11-27 18:55:05.628,,,,,,,,,,,,,,,,,,,,,,,,,,,,,,,,,,,,,,/muse/elements/blink
2021-11-27 18:55:06.434,,,,,,,,,,,,,,,,,,,,,,,,,,,,,,,,,,,,,,/muse/elements/blink
2021-11-27 18:55:06.550,0.4991287737540897,1.262442569800773,1.067933051717841,0.537646051846164,0.850377725031966,1.093725003231566,0.7789999169785053,0.619815935756341,0.9475696605083175,1.043982545843696,0.5448178690889038,0.7259484714596017,0.1987830481782019,0.1659361367487904,0.0832534278681655,0.1688565527114741,-0.2599068535553291,-0.4073600302319737,-0.4689406829468844,-0.1793202128685471,792.1611721611722,794.5787545787546,795.7875457875458,780.8791208791209,792.5641025641025,0.165955,-0.186279,0.984009,2.975769,-5.772095,-0.904694,1,2,1,1,2,30.000000
2021-11-27 18:55:07.473,,,,,,,,,,,,,,,,,,,,,,,,,,,,,,,,,,,,,,/muse/elements/blink
2021-11-27 18:55:07.549,0.4991287737540897,1.2643373649754,0.9989225917548685,0.537646051846164,0.850377725031966,1.082813995953455,0.7753407132556842,0.619815935756341,0.9475696605083175,0.936364187291621,0.5268226609560099,0.7259484714596017,0.1987830481782019,0.1202140025132407,-0.2763885161458526,0.1688565527114741,-0.2599068535553291,-0.3629389229900736,-0.4853245053198022,-0.1793202128685471,813.5164835164835,788.9377289377289,796.5934065934066,797.8021978021978,705.934065934066,0.185425,-0.185913,0.987305,3.566437,-6.788940,-2.549591,1,2,1,1,2,30.000000
2021-11-27 18:55:08.550,0.4991287737540897,1.203965841192064,0.779909580390303,0.537646051846164,0.850377725031966,0.8470428231171936,0.5413151400295092,0.619815935756341,0.9475696605083175,0.8946276816328894,0.4991768712990566,0.7259484714596017,0.1987830481782019,0.009630715496889219,-0.1567102002579551,0.1688565527114741,-0.2599068535553291,-0.4167655826956484,-0.3654209049577105,-0.1793202128685471,796.1904761904763,793.3699633699634,801.8315018315019,785.7142857142858,730.5128205128206,0.180359,-0.179810,0.981201,6.856232,-5.816956,-2.392578,1,2,1,1,2,30.000000
2021-11-27 18:55:09.550,0.2851281400490286,0.7876034379397904,0.62552549513225,0.6926237447897781,0.1820443487273707,0.4936562644067843,0.1281542262638542,0.5425850565256762,0.5827855499089952,0.7663099123633376,0.4255781044581572,0.5045448359870777,0.2819047646204901,-0.01225545227016889,0.04425146645874421,0.3077037656615894,-0.1324171322540967,-0.347401836646043,-0.5191211068094714,-0.1390406657849115,813.5164835164835,795.3846153846154,787.3260073260074,797.8021978021978,703.919413919414,0.186096,-0.194397,0.972534,3.469238,-6.766510,-3.558960,1,1,1,1,1,30.000000
2021-11-27 18:55:09.707,,,,,,,,,,,,,,,,,,,,,,,,,,,,,,,,,,,,,,/muse/elements/blink
2021-11-27 18:55:10.550,0.2926015352922982,1.355285615122521,1.126693948533674,0.9029536375795777,0.2780237757686066,1.046677797811445,0.7096780809512908,0.7770884028287152,0.511518032812073,0.8344763158213039,0.617588023185798,0.4899556294503719,0.2559465543412111,-0.01637074193515383,0.1409389422493858,0.1923390558930651,0.007394393678476012,-0.3924679268459582,-0.5045693924510581,-0.1412536748090201,796.5934065934066,795.7875457875458,801.025641025641,784.9084249084249,747.032967032967,0.184570,-0.168335,0.988647,4.590759,-1.966400,0.927124,1,1,1,1,1,30.000000
2021-11-27 18:55:11.440,,,,,,,,,,,,,,,,,,,,,,,,,,,,,,,,,,,,,,/muse/elements/blink
2021-11-27 18:55:11.550,0.5504564971051197,1.246570950528871,1.046376184472935,0.8974457553545281,0.4807961509764995,0.8479142512079209,0.7146403476461898,0.3788062408292637,0.3360312120635326,0.8639009934087982,0.5463898043819694,0.5061553041192203,0.115505174417401,-0.1356135045510121,0.1324047738686431,0.4693028061120179,0.05522570753168991,-0.4336033854877342,-0.4358924731999899,-0.09683328188102301,793.3699633699634,787.3260073260074,796.1904761904763,792.1611721611722,774.4322344322345,0.176941,-0.167908,0.986572,3.992615,-5.121613,-3.357086,1,1,1,1,1,30.000000
2021-11-27 18:55:12.550,0.450277544107284,1.267097469151052,1.149576421637983,0.5708136712967203,0.549549495572569,1.067411463432425,0.9354845995167832,0.6317437885964526,0.6814692178710364,0.8819559741401686,0.7362424149372983,0.3069673635447533,0.06470122857414709,-0.0001839730285203706,0.1677425374461995,0.3717823906124226,0.008623789633679558,-0.5267536408677532,-0.4412934727216304,-0.09143711706539465,795.7875457875458,790.5494505494506,798.6080586080586,786.5201465201466,685.7875457875458,0.186829,-0.186218,0.979431,4.269257,-4.299164,-2.385101,1,1,1,1,1,30.000000
2021-11-27 18:55:13.550,0.3240143161313528,1.042411241373618,1.004726769055505,0.5322504620707875,0.2996137185141072,0.7159724932360564,0.6160063765099043,0.3206692294104908,0.7645289103455365,0.693376657220353,0.6811642690022102,0.6236074358284238,0.216064509799465,0.1077574476289215,0.1684307454530794,0.3613339724126913,-0.1400609037429559,-0.3833242428748877,-0.4387590117578742,-0.05339112828947521,813.1135531135532,781.2820512820513,776.0439560439561,809.0842490842491,854.2124542124542,0.178650,-0.173889,0.987427,3.977661,-4.934692,-2.295380,1,1,1,1,1,30.000000
2021-11-27 18:55:13.661,,,,,,,,,,,,,,,,,,,,,,,,,,,,,,,,,,,,,,/muse/elements/blink
2021-11-27 18:55:13.968,,,,,,,,,,,,,,,,,,,,,,,,,,,,,,,,,,,,,,/muse/elements/blink
2021-11-27 18:55:14.553,0.1658188995301319,1.432115115103046,1.130624441950582,0.7203368937183462,0.1645780600437672,1.209756076844329,0.8505222862703924,0.0344393819683743,0.6140895067951048,0.8860495716619787,0.5946504557643163,0.5381792411281741,0.3322040649461482,0.1302367789511671,-0.0197378238262541,0.4120094242251199,-0.247842680401676,-0.3888787025726825,-0.4295397467544853,-0.0394591636322737,815.1282051282052,780.0732600732601,791.7582417582418,810.6959706959707,764.3589743589744,0.190796,-0.172363,0.984680,5.136566,-4.702911,-2.033691,1,1,1,1,1,30.000000
2021-11-27 18:55:14.680,,,,,,,,,,,,,,,,,,,,,,,,,,,,,,,,,,,,,,/muse/elements/blink
2021-11-27 18:55:15.550,0.1857715646285858,1.434677820931871,1.081911434228216,0.767588805432001,0.1714875485076465,1.26493143695501,0.8387050822972624,0.05860103840897164,0.5835506693376755,0.9878993186597048,0.7284869507143632,0.4599367908502831,0.3525765997332392,0.01638142365227631,0.02201444504919321,0.4238099464473198,-0.2488344089336485,-0.4580948994208607,-0.4170029628730953,-0.04510352373262231,789.7435897435897,794.1758241758242,799.4139194139194,780.4761904761905,633.0036630036631,0.192200,-0.191223,0.981262,3.947754,-6.145935,0.590668,1,1,1,1,1,30.000000
2021-11-27 18:55:15.802,,,,,,,,,,,,,,,,,,,,,,,,,,,,,,,,,,,,,,/muse/elements/blink
2021-11-27 18:55:16.555,0.1857715646285858,1.137424787599119,1.030214670969028,0.767588805432001,0.1714875485076465,1.018286864825326,0.8075528250947519,0.05860103840897164,0.5835506693376755,0.9563900701708311,0.6397407344904875,0.4599367908502831,0.3525765997332392,0.01659630004178779,-0.03433230499496179,0.4238099464473198,-0.2488344089336485,-0.4234762658778858,-0.4308620225310699,-0.04510352373262231,782.893772893773,795.7875457875458,795.7875457875458,788.9377289377289,639.047619047619,0.191772,-0.189148,0.983643,5.652466,-4.710388,-0.560760,1,2,1,1,2,30.000000
2021-11-27 18:55:16.922,,,,,,,,,,,,,,,,,,,,,,,,,,,,,,,,,,,,,,/muse/elements/blink
2021-11-27 18:55:17.550,0.1857715646285858,1.601765315894871,1.19679880756846,0.767588805432001,0.1714875485076465,1.080438566491121,1.312811572295631,0.05860103840897164,0.5835506693376755,1.091470221889391,0.7995376700176146,0.4599367908502831,0.3525765997332392,0.02072895800969717,0.05294113137648584,0.4238099464473198,-0.2488344089336485,-0.4219961816833183,-0.3012312475992812,-0.04510352373262231,800.2197802197802,792.5641025641025,797.8021978021978,791.3553113553114,807.8754578754579,0.202637,-0.164001,0.988770,8.643188,-7.192688,2.452393,1,2,1,1,2,30.000000
2021-11-27 18:55:18.549,0.8656405700281039,1.687648657061817,1.543611407617735,0.8161447661030984,0.7798708395109195,1.017262137485392,1.37367908058437,0.735824603724082,0.4875687242301009,1.088467123181106,0.7909141741294793,1.039916885417665,0.4054392206141487,-0.02448394841865363,0.08011145763024972,0.6438513772684369,-0.1392091706003935,-0.3937360693866577,-0.4392039101251219,0.1428426342679092,796.1904761904763,801.4285714285714,788.9377289377289,776.8498168498169,716.4102564102565,0.184631,-0.161255,0.989014,6.026306,-5.652466,0.373840,1,1,1,1,1,30.000000
2021-11-27 18:55:19.351,,,,,,,,,,,,,,,,,,,,,,,,,,,,,,,,,,,,,,/muse/elements/blink
2021-11-27 18:55:19.552,0.7517979661274725,1.284011381892712,1.453751358468866,0.5952661941747387,0.5125110504424946,0.8434617319402837,0.8923533933884911,0.4745591256387828,0.3059392021550805,0.6683849811930778,0.5694947010280242,1.000405498564793,0.3649139580186141,-0.01890969074971388,-0.07048237284040695,0.7128753669920472,-0.05626925877503237,-0.3302488995438435,-0.561610064727552,0.1274418614896988,800.2197802197802,801.4285714285714,799.4139194139194,786.5201465201466,686.1904761904763,0.183594,-0.189819,0.975464,2.796326,-3.065491,0.545807,1,1,1,1,1,30.000000
2021-11-27 18:55:20.555,0.6411884437340811,1.019809983197242,1.04219673375113,0.3116056678876582,0.3279930986806946,0.9747055439561685,0.5203411030312971,0.009740755734326327,0.6243250845939921,0.724490878237294,0.5397427872545016,0.473562328147472,0.4730209662197699,0.1106996424756225,0.04868173091434245,0.5193396092713056,0.6563356853240199,-0.2510081800834084,-0.6549886972852127,0.03151036625217424,791.7582417582418,795.7875457875458,789.3406593406594,790.952380952381,713.992673992674,0.140930,-0.173340,0.992554,3.110352,-1.517792,1.330872,1,1,1,1,1,30.000000
2021-11-27 18:55:21.549,0.7231047905877577,0.637485128919588,0.7836400898722393,0.7712139411365089,0.691065708225569,0.4119079739815671,0.3423220594861255,0.3863805722791317,0.7567950069469648,0.6743799123848579,0.6488745404512268,1.096736737693858,0.3669596822590033,0.1063718937110463,0.04245404873208081,0.4795426726237557,0.3952803264635595,-0.4381926672518173,-0.612425865913232,0.01540005457767151,770.4029304029305,816.3369963369963,790.1465201465202,750.2564102564103,679.3406593406594,0.147278,-0.176392,0.981567,4.515991,-4.097290,-1.659851,1,1,1,1,1,30.000000
2021-11-27 18:55:21.665,,,,,,,,,,,,,,,,,,,,,,,,,,,,,,,,,,,,,,/muse/elements/blink
2021-11-27 18:55:22.550,0.6501884570417039,1.365527814496866,1.06079933504778,1.023407807365072,0.8060971187997891,1.086978122944377,0.6971103440136739,0.6442336887148296,0.750538365867887,0.7864740940964626,0.6488745404512268,1.099077808142666,0.2992500498982993,0.2029202485645228,-0.1346235321767495,0.5482258547143354,-0.1399297231803634,-0.4416346172023085,-0.4702090795146477,-0.1003320677119593,832.0512820512821,780.8791208791209,788.5347985347986,835.2747252747253,739.3772893772893,0.172424,-0.183716,0.984802,3.940277,-5.136566,-4.022522,1,1,1,1,1,30.000000
2021-11-27 18:55:22.636,,,,,,,,,,,,,,,,,,,,,,,,,,,,,,,,,,,,,,/muse/elements/blink
2021-11-27 18:55:23.549,0.6513032057348034,1.428778673118497,0.7523148448361748,1.104005409386982,0.8478591900023843,1.187429674509928,0.6051312503268937,0.7017167367126561,0.7147030100309651,0.8473354027259292,0.5700611124778651,1.092287058228378,0.3450374161319323,-0.0004341106434863857,-0.1560587608938878,0.5587998239813062,-0.1728515381302525,-0.474587381944423,-0.3978879799061067,-0.1921397770179799,760.3296703296703,809.8901098901099,799.8168498168499,765.5677655677656,675.3113553113553,0.153137,-0.175598,0.982178,3.962708,-5.316010,-2.938385,1,1,1,1,1,35.000000
2021-11-27 18:55:23.729,,,,,,,,,,,,,,,,,,,,,,,,,,,,,,,,,,,,,,/muse/elements/blink
2021-11-27 18:55:24.510,,,,,,,,,,,,,,,,,,,,,,,,,,,,,,,,,,,,,,/muse/elements/blink
2021-11-27 18:55:24.549,0.6513032057348034,1.267409499391785,0.8313794954475842,1.104005409386982,0.8478591900023843,1.01907440143143,0.7134350723631192,0.7017167367126561,0.7147030100309651,0.700343040212248,0.6429248141864052,1.092287058228378,0.3450374161319323,-0.03560468014513355,-0.01535536041523653,0.5587998239813062,-0.1728515381302525,-0.4135597834668485,-0.460878850603828,-0.1921397770179799,810.2930402930403,787.7289377289378,781.6849816849817,805.8608058608058,689.8168498168499,0.161133,-0.181763,0.981201,4.291687,-3.125305,-2.646790,1,2,1,1,2,35.000000
2021-11-27 18:55:25.549,0.6513032057348034,1.441861966219435,0.9814257150170154,1.104005409386982,0.8478591900023843,1.223410693568077,0.7018963604502003,0.7017167367126561,0.7147030100309651,0.8527163218498132,0.6005410717968698,1.092287058228378,0.3450374161319323,-0.004750382327880927,0.05083678460770734,0.5587998239813062,-0.1728515381302525,-0.3960292871765754,-0.5615510260290576,-0.1921397770179799,791.7582417582418,797.8021978021978,792.1611721611722,784.1025641025641,744.6153846153846,0.166748,-0.178406,0.982178,5.121613,-4.276733,-1.981354,1,2,1,1,2,35.000000
2021-11-27 18:55:26.074,,,,,,,,,,,,,,,,,,,,,,,,,,,,,,,,,,,,,,/muse/elements/blink
2021-11-27 18:55:26.550,0.4124858083519721,1.36289619702945,1.167641545150464,0.5580030815862945,0.4047143830690016,1.084784218909808,0.6825922936986882,0.1745611338707371,0.7136740321260605,0.7671129021959833,0.2212886619305684,0.6074273810101743,0.1364329772487997,0.01104079583241731,0.05884063642925698,0.4621039276761595,-0.1985007020679979,-0.4106805286957628,-0.3493276536622582,0.05286446608189673,730.1098901098901,816.3369963369963,814.7252747252747,736.1538461538462,859.4505494505495,0.182373,-0.181030,0.981567,4.590759,-5.420685,-0.463562,1,1,1,1,1,35.000000
2021-11-27 18:55:26.783,,,,,,,,,,,,,,,,,,,,,,,,,,,,,,,,,,,,,,/muse/elements/blink
2021-11-27 18:55:27.549,0.4543287884445912,1.491133022462932,1.17529929834322,0.6092032688449399,0.4353538761580273,1.141078234787703,0.7487589528081549,0.2044386977161025,0.7136740321260605,0.7956557442046391,0.2796243911937784,0.6074273810101743,0.1963318701004074,-0.1139240052314831,-0.06565693522391915,0.4893655359429931,-0.1708877471339118,-0.3707207737728186,-0.4266387496200216,0.05350196274263755,796.1904761904763,809.8901098901099,804.6520146520147,784.1025641025641,666.8498168498169,0.181641,-0.176392,0.980164,4.972076,-5.592651,-1.629944,1,1,1,1,1,35.000000
2021-11-27 18:55:27.755,,,,,,,,,,,,,,,,,,,,,,,,,,,,,,,,,,,,,,/muse/elements/blink
2021-11-27 18:55:28.354,,,,,,,,,,,,,,,,,,,,,,,,,,,,,,,,,,,,,,/muse/elements/blink
2021-11-27 18:55:28.549,0.4543287884445912,1.39741707573129,1.04782847091932,0.6092032688449399,0.4353538761580273,1.160597540964149,0.5595673546699101,0.2044386977161025,0.7136740321260605,0.895946714900373,0.3956844383849504,0.6074273810101743,0.1963318701004074,0.04583840041524674,0.0259463993419559,0.4893655359429931,-0.1708877471339118,-0.4613252119400379,-0.4357770528656735,0.05350196274263755,802.2344322344322,792.967032967033,801.8315018315019,799.0109890109891,860.6593406593407,0.183777,-0.183655,0.977539,5.600128,-4.815063,-0.246735,1,1,1,1,1,35.000000
2021-11-27 18:55:29.549,0.4543287884445912,1.363045487765812,0.9175662779543352,0.6092032688449399,0.4353538761580273,1.207735481397879,0.4349598873140458,0.2044386977161025,0.7136740321260605,0.9559278526561703,0.3402397717806122,0.6074273810101743,0.1963318701004074,0.06062494449210288,0.04027262167749367,0.4893655359429931,-0.1708877471339118,-0.4884727419624403,-0.4311345812284788,0.05350196274263755,806.6666666666667,797.8021978021978,799.0109890109891,808.6813186813187,842.1245421245421,0.188599,-0.178223,0.980347,6.744080,-3.192596,1.951447,1,2,1,1,2,35.000000
2021-11-27 18:55:30.319,,,,,,,,,,,,,,,,,,,,,,,,,,,,,,,,,,,,,,/muse/elements/blink
2021-11-27 18:55:30.549,0.9028998899805801,0.9827535935448253,0.8890261117048703,0.9398280763669357,0.6489364170930296,0.6929277440674714,0.5017537415181794,0.8054524843053837,1.142947310967693,0.6970581814222326,0.286434100574028,1.379782690998314,0.393241519274012,0.08187317963158842,-0.1156797803477367,0.6985619033935732,-0.2064325758513155,-0.4893065905093887,-0.5031081283171669,0.03839737949862628,797.8021978021978,796.1904761904763,797.8021978021978,794.981684981685,662.4175824175825,0.144165,0.077820,1.002441,11.783447,-2.878571,-10.415192,1,1,1,1,1,35.000000
2021-11-27 18:55:31.555,1.095190387197903,1.158321807887527,0.7909130457473783,1.300026248422276,0.8549982764545444,0.9120709416938539,0.5820202377581151,0.9694795629187286,1.22837985995975,0.7532504625155849,0.4231853014465915,1.428654251906406,0.4536362444454886,0.0842742879937896,0.04761418693356081,0.8939405583523315,-0.1491866964304456,-0.3727883603506283,-0.427736444613565,0.2030110017365384,799.4139194139194,802.6373626373627,804.6520146520147,792.5641025641025,903.3699633699634,0.208740,0.094727,0.984070,7.446899,-9.114227,3.155212,1,1,1,1,1,35.000000
2021-11-27 18:55:32.015,,,,,,,,,,,,,,,,,,,,,,,,,,,,,,,,,,,,,,/muse/elements/blink
2021-11-27 18:55:32.530,,,,,,,,,,,,,,,,,,,,,,,,,,,,,,,,,,,,,,/muse/elements/blink
2021-11-27 18:55:32.549,0.8403512686511818,1.014712699076394,1.273796788421952,0.971253432659577,0.7694821065475403,0.867404473411593,0.9887766530645082,0.2300264751614467,1.057170586784453,0.7091488116203528,0.8291723690877902,0.6829473956489028,0.4789511552376888,0.04575171890146136,0.003810038740953092,0.4067780689616808,-0.1411510297425082,-0.2855820141413494,-0.4033005791899981,0.140812476291667,854.2124542124542,787.3260073260074,794.1758241758242,842.1245421245421,777.6556776556777,0.252686,0.071228,0.985352,3.334656,-8.104858,-3.125305,1,1,1,1,1,35.000000
2021-11-27 18:55:33.549,0.7038194421405533,1.52734537448117,1.63573679634655,0.6772643047216306,0.7517282658161776,1.252652547100666,1.22781015466476,0.1308349178865365,0.8440540731175638,0.7469004950038561,0.8729615183534906,0.6811857142825417,0.3961112552992807,0.4074326926986479,0.1118523484114086,0.2536124313962777,-0.1441535966099986,0.1298765418006105,-0.4078817678138267,4.641357107188369e-05,794.5787545787546,794.5787545787546,788.5347985347986,781.6849816849817,677.7289377289377,0.263855,0.086792,0.978027,5.428162,-5.129089,-0.800018,1,1,1,1,1,35.000000
2021-11-27 18:55:33.862,,,,,,,,,,,,,,,,,,,,,,,,,,,,,,,,,,,,,,/muse/elements/blink
