TimeStamp,Delta_TP9,Delta_AF7,Delta_AF8,Delta_TP10,Theta_TP9,Theta_AF7,Theta_AF8,Theta_TP10,Alpha_TP9,Alpha_AF7,Alpha_AF8,Alpha_TP10,Beta_TP9,Beta_AF7,Beta_AF8,Beta_TP10,Gamma_TP9,Gamma_AF7,Gamma_AF8,Gamma_TP10,RAW_TP9,RAW_AF7,RAW_AF8,RAW_TP10,AUX_RIGHT,Accelerometer_X,Accelerometer_Y,Accelerometer_Z,Gyro_X,Gyro_Y,Gyro_Z,HeadBandOn,HSI_TP9,HSI_AF7,HSI_AF8,HSI_TP10,Battery,Elements
2021-11-25 13:45:43.875,1.038083269685184,0.608898897593985,0.1650162354879649,0.8609813377050917,0.5205223997397598,0.02751443365180758,0.04494083818288765,0.5854469746784509,0.8666514383796067,0.1511085219768787,0.425452650826438,0.7596187412714707,0.8078508346233551,0.05518494904843005,0.1663749108744728,0.5984342399527566,0.7202709008296841,-0.2822140324961868,-0.4198395267897487,0.2458968350168402,875.9706959706959,813.1135531135532,826.8131868131868,887.2527472527473,852.1978021978023,0.051514,0.265930,0.975098,5.188904,-4.366455,-1.345825,1,1,1,1,1,100.000000
2021-11-25 13:45:44.859,1.12518708005546,0.7933953722401591,0.4658408528144268,0.9497490361114781,0.5429855369274347,0.1618647052912408,0.1793931131590911,0.6641695006568646,0.8795480021340326,0.2419194814701125,0.332357372520341,0.7782234993689707,0.8550841138464977,-0.01465239815574586,0.01809749828585652,0.6526070646199579,0.80633949023732,-0.3832248228325507,-0.5106677526133626,0.3371922324125139,856.6300366300367,840.9157509157509,834.0659340659341,879.1941391941392,778.8644688644689,0.031738,0.250732,0.989685,2.788849,-5.188904,-2.400055,1,1,1,1,1,100.000000
2021-11-25 13:45:45.859,1.426627820842209,0.6692174454458695,0.5051628271352471,1.582031966393987,0.3836585770781115,0.1677628743242726,0.1472132029480378,0.5836026952792739,0.858888570287109,0.2481534839215543,0.2446472439729552,1.02384129423875,0.8711685137177662,0.03964912698352043,-0.0346402870856909,0.7622751991867669,0.744632253304099,-0.4419389681382945,-0.3919475591223912,0.3487314402585637,823.1868131868132,841.3186813186813,782.4908424908425,964.6153846153846,867.9120879120879,0.044495,0.239319,0.983032,4.508514,-4.239349,-2.250519,1,1,1,1,1,100.000000
2021-11-25 13:45:46.859,1.607151386277143,0.27297329398519,1.268041151653065,2.252844382127814,0.5423918759912268,-0.04086097210176916,0.2675563142053741,0.7174031757978795,0.7518057256978011,0.1481670429550989,0.376597939765265,0.9196867036958294,1.097960901456172,0.1406349182035798,0.1289576560617817,0.772901666728576,0.9808679756538147,-0.3143463753730462,-0.2109773251800376,0.553678441188121,846.5567765567765,828.021978021978,847.7655677655678,904.5787545787546,834.8717948717949,0.043640,0.245483,0.987854,0.157013,1.487885,-3.955231,1,1,1,1,1,100.000000
2021-11-25 13:45:47.318,,,,,,,,,,,,,,,,,,,,,,,,,,,,,,,,,,,,,,/muse/elements/jaw_clench
2021-11-25 13:45:47.860,1.598565551559609,0.869328400375826,1.746808363484452,2.216456921532545,0.7779114534353144,0.1739201933851129,0.3730023836050523,0.6788925961306297,0.9467858096472539,0.3191507049346759,0.4467367515124576,0.8771700384374893,1.229094086947188,0.4432859096876751,0.5035843121960616,0.7632490698393828,0.9894222670386642,0.3568002560687951,0.3333846118626579,0.5765597697544672,673.6996336996338,832.4542124542124,814.7252747252747,820.7692307692308,720.4395604395604,-0.162781,0.034912,1.006287,-2.930908,5.704803,16.269531,1,1,1,1,1,100.000000
2021-11-25 13:45:47.918,,,,,,,,,,,,,,,,,,,,,,,,,,,,,,,,,,,,,,/muse/elements/jaw_clench
2021-11-25 13:45:48.383,,,,,,,,,,,,,,,,,,,,,,,,,,,,,,,,,,,,,,/muse/elements/blink
2021-11-25 13:45:48.859,1.740549801689634,1.455004295440657,1.772274458645362,1.879024887800694,0.9842653520478097,0.5735515706740926,0.9559551250625358,0.6293970394209447,0.9444380716330829,0.7706080138001744,0.5836029480650552,0.8764609140592232,1.358211279702293,0.4597914757554081,0.5810343309809505,0.6179321983272301,0.9850395241832117,0.3480796002543337,0.3908187296916998,0.4856297664508192,846.1538461538462,851.3919413919414,830.0366300366301,875.5677655677656,825.2014652014652,-0.151978,0.049622,1.023315,3.902893,-7.925415,-4.254303,1,1,1,1,1,100.000000
2021-11-25 13:45:49.866,1.740549801689634,1.430266545551642,1.712470421309828,1.881237450138426,0.9842653520478097,0.4927547426490848,0.9730082188451316,0.6067209926249802,0.9444380716330829,0.7427689866635914,0.560458888256858,0.7328677983198459,1.358211279702293,0.03100974780933477,0.1213841843221312,0.6375376134787905,0.9850395241832117,-0.4997596335703793,-0.2114112203990664,0.1217704656993158,901.3553113553114,856.2271062271062,794.1758241758242,935.2014652014652,954.9450549450549,-0.105713,0.000061,0.932190,2.646790,-13.734894,-14.602203,1,1,1,1,1,100.000000
2021-11-25 13:45:49.943,,,,,,,,,,,,,,,,,,,,,,,,,,,,,,,,,,,,,,/muse/elements/blink
2021-11-25 13:45:50.859,1.740549801689634,0.4245916384716338,1.715597947896994,1.941118945677886,0.9842653520478097,-0.002415353932505571,0.3231006107711218,0.5836003299541509,0.9444380716330829,0.3035913032410316,0.4442315768294794,0.7299749299226381,1.358211279702293,-0.001950315610032718,0.01616751456689021,0.5771709965808469,0.9850395241832117,-0.5414017498765811,-0.3721854331611949,0.09205068852091423,842.9304029304029,834.4688644688645,825.6043956043957,892.0879120879121,725.2747252747253,0.018921,0.002197,0.893005,7.544098,-12.755432,-14.669495,1,1,1,1,1,100.000000
2021-11-25 13:45:51.004,,,,,,,,,,,,,,,,,,,,,,,,,,,,,,,,,,,,,,/muse/elements/blink
2021-11-25 13:45:51.577,,,,,,,,,,,,,,,,,,,,,,,,,,,,,,,,,,,,,,/muse/elements/blink
2021-11-25 13:45:51.859,1.740549801689634,1.332836864644467,1.325327214970545,1.996144279374988,0.9842653520478097,0.771289906976147,0.8330769863168703,0.5477653153077996,0.9444380716330829,0.4978272882868843,0.599807597887734,0.7207943626377116,1.358211279702293,0.006438912409855726,0.05699876149637326,0.493087854784173,0.9850395241832117,-0.4908718249713706,-0.4676248663665716,0.07175590766386895,858.6446886446887,845.7509157509157,816.3369963369963,844.9450549450549,780.8791208791209,-0.134705,0.034546,1.032288,7.745972,-7.215118,0.299072,1,1,1,1,1,100.000000
2021-11-25 13:45:52.859,1.740549801689634,1.408107361601687,1.403546144462828,1.996144279374988,0.9842653520478097,0.7174576774223592,0.9889572725532193,0.5477653153077996,0.9444380716330829,0.4051954624618993,0.4620334173650402,0.7207943626377116,1.358211279702293,0.06472070711666929,0.04824835048704355,0.493087854784173,0.9850395241832117,-0.3729102796373069,-0.3595639131206047,0.07175590766386895,849.7802197802198,828.4249084249085,815.5311355311355,838.0952380952381,855.0183150183151,-0.118347,0.055176,0.994385,8.269348,-13.091888,-5.914154,1,2,1,1,2,100.000000
2021-11-25 13:45:53.833,,,,,,,,,,,,,,,,,,,,,,,,,,,,,,,,,,,,,,/muse/elements/blink
2021-11-25 13:45:53.863,1.463414992644472,1.205824650202091,1.228155577402369,0.8465720174990907,1.02984299569408,0.8606271400913832,0.5894599987715096,0.4123274492900758,1.16196877275368,0.7723239299448917,0.3611149926854071,0.6283677478338586,0.5714494914526365,0.01352646991568114,-0.001726933049182866,0.4284087761154159,0.1288925810337126,-0.4633180202859697,-0.4003991969766882,0.2094555323996281,868.7179487179487,834.8717948717949,829.2307692307693,850.989010989011,722.8571428571429,-0.141235,0.039246,0.977234,1.323395,-1.450500,8.807678,1,1,1,1,1,100.000000
2021-11-25 13:45:54.097,,,,,,,,,,,,,,,,,,,,,,,,,,,,,,,,,,,,,,/muse/elements/blink
2021-11-25 13:45:54.859,1.750844658648109,1.513878952103201,1.617392058198089,1.285685659342189,1.373789757299584,1.082318314863089,1.043925671257765,0.8968812238685194,1.156500604744924,0.8279730539181883,0.5908023816025604,0.9144588812049125,0.7040374566293167,0.08940430264546946,0.09539084257334519,0.4913224389339627,0.2460481603650946,-0.4313440081468863,-0.6684191437770165,0.2692804627068575,846.1538461538462,836.0805860805862,804.6520146520147,845.7509157509157,768.3882783882784,-0.058533,0.042969,1.001465,6.691742,-5.226288,-7.476807,1,1,1,1,1,100.000000
2021-11-25 13:45:55.859,0.9847751413761294,1.13560101184925,1.257968828852223,0.5369768788011831,0.1511612857664556,0.7003733999073523,1.046081978477752,0.2334039912943833,0.5734644592997167,0.7642141254858208,0.502683565502807,0.3601747231841193,0.393737964321947,-0.1336986685491637,0.08328369770761339,0.4369038962983476,0.07725096344838046,-0.4859366431270096,-0.6594603922737053,-0.06868947280947905,835.2747252747253,828.8278388278388,823.5897435897436,831.2454212454213,854.2124542124542,-0.096741,0.032166,1.002625,4.897308,-6.729126,-3.386993,1,1,1,1,1,100.000000
2021-11-25 13:45:56.858,0.7649815840983432,0.446816423230704,0.889576375710097,0.6772046820452772,0.4698895421399211,-0.08046154917919345,0.1492857311105291,0.3128915933695777,0.5182382551361815,0.3102673720790798,0.2963763416319813,0.4364988588784589,0.4269485789431292,-0.1285763051374037,0.06093738129424216,0.4975527847959282,0.06775930868441202,-0.6229822150709039,-0.4377394413294131,0.02619369645099198,855.4212454212454,836.0805860805862,815.934065934066,842.5274725274726,772.014652014652,-0.092529,0.027954,1.004456,2.385101,-6.893616,-0.613098,1,1,1,1,1,100.000000
2021-11-25 13:45:57.858,,,,,,,,,,,,,,,,,,,,,,,,,,,,,,,,,,,,,,/muse/elements/blink
2021-11-25 13:45:57.867,1.253124595180288,1.096788603707668,1.011465051780243,0.7180411878430928,0.9213747032923472,0.6682477487527506,0.4866348064264417,0.8123603515254636,0.7998519345179141,0.6011540239307034,0.3864491370400344,0.7099772484750775,0.5037221544365401,-0.0079907418957928,0.06945651741656006,0.5948512201803664,0.07131222410364692,-0.4103668907442212,-0.4343156243902659,0.1456086223004569,886.8498168498169,827.2161172161173,821.1721611721612,887.6556776556777,819.5604395604396,-0.088135,0.032715,0.997742,4.964600,-5.271149,-1.585083,1,1,1,1,1,100.000000
2021-11-25 13:45:58.859,0.856003947347347,0.5691640876156336,1.039826485611812,0.3890877599958705,0.5020872224752154,0.2305071589603429,0.7127489670131948,0.582162740874413,0.5764234444130587,0.4837484562764238,0.5400075663833428,0.5013262283542756,0.2632390551713785,0.06934110163677132,0.02173691268315406,0.6486906655810385,-0.03779410606175048,-0.4546373229806638,-0.4482785919311766,0.3069106020072979,841.7216117216118,828.4249084249085,815.5311355311355,830.0366300366301,773.6263736263736,-0.141907,0.036438,0.990601,6.482391,-3.835602,-0.538330,1,1,1,1,1,100.000000
2021-11-25 13:45:59.859,0.8970915475767937,0.3823239542597513,0.4340687968910669,0.4778804373529792,0.5222815491725753,0.06173808588545222,0.2406496447396304,0.3950809574435686,0.8840769154060805,0.4334170267736781,0.5447739768199032,0.5969654121223446,0.5109785850410191,0.006297857774727341,0.06788199840686156,0.4165415189757553,-0.09289419752691708,-0.6851552197352022,-0.4666775983504229,-0.1019240062662972,835.6776556776557,825.6043956043957,815.1282051282052,836.0805860805862,739.7802197802198,-0.136047,0.024353,1.004578,2.198181,-6.504822,0.186920,1,1,1,1,1,100.000000
2021-11-25 13:46:00.722,,,,,,,,,,,,,,,,,,,,,,,,,,,,,,,,,,,,,,/muse/elements/blink
2021-11-25 13:46:00.866,1.281119591907631,0.8633506080700933,0.6274843702412786,0.826966938855243,0.8507992749806061,0.3644403307247381,0.240647494617521,0.6881688164709119,0.9191473825868993,0.4735847113852558,0.3991741337964588,0.6128172507885584,0.4068688602641518,-0.08126779043741693,-0.03259925566486127,0.3538788282883348,-0.1647530545410393,-0.5605493424435747,-0.4597869547795861,-0.08441965175591711,855.0183150183151,830.0366300366301,814.3223443223443,855.0183150183151,715.6043956043957,-0.155762,0.034241,1.001282,7.940369,-6.018829,2.183228,1,1,1,1,1,100.000000
2021-11-25 13:46:01.861,0.9220407332478185,0.2973863703469469,0.7880567587371943,0.6194958322128464,0.4660496857555518,-0.03321672766639573,0.3414108654523552,0.5414566478055105,0.6185952899621662,0.3094206232632562,0.3488686893840801,0.3437633589094733,0.3516890503500054,-0.02635717595844593,-0.1517206763370481,0.4984702748318754,-0.160622288783093,-0.4373330171647181,-0.4735003191323305,-0.009750128240191596,847.7655677655678,832.4542124542124,803.4432234432235,823.1868131868132,782.0879120879121,-0.116821,0.047791,1.003601,3.147736,-7.910461,-1.368256,1,1,1,1,1,100.000000
2021-11-25 13:46:02.859,0.9220407332478185,0.3010401860369826,0.6531356071122146,0.7756246227966129,0.4660496857555518,0.002319023715811416,0.5194431155746893,0.3324927963877101,0.6185952899621662,0.2770813392453767,0.3943429052152357,0.430745614984326,0.3516890503500054,-0.002657049763207276,-0.1047772495599598,0.3496603514522265,-0.160622288783093,-0.4620250923246617,-0.425275143894972,-0.0981727256880477,836.0805860805862,813.919413919414,819.5604395604396,820.3663003663004,794.981684981685,-0.089905,0.029114,1.014343,-0.882263,-6.616974,11.768494,1,1,1,1,1,100.000000
2021-11-25 13:46:03.859,1.255710886399552,0.7513340618724205,0.957861304378304,1.476849938418633,0.6029405459566503,0.467667223323324,0.6249651640754738,0.9816619531522039,0.4798761495916674,0.6166171003539789,0.2496848297914284,0.6918998078442349,0.5583350678161541,-0.01745355500811339,-0.09915322368183307,0.43142720172123,-0.1199365730456187,-0.4439238296402983,-0.4828727729649614,0.09469043401284499,843.3333333333334,829.2307692307693,811.9047619047619,846.1538461538462,805.8608058608058,-0.036865,-0.017029,1.016724,2.886047,-5.570221,10.497437,1,1,1,1,1,100.000000
2021-11-25 13:46:04.788,,,,,,,,,,,,,,,,,,,,,,,,,,,,,,,,,,,,,,/muse/elements/blink
2021-11-25 13:46:04.858,0.8936783632595998,0.751531249337073,0.8620940359816753,1.468244472727245,0.5193125359036077,0.3716564822653559,0.5408175903091579,1.017974472438508,0.6342983117060602,0.5568185699687607,-0.04529318468018704,0.7244664390842503,0.6073554292576112,-0.0301918819713114,-0.02771743383418922,0.534235582473504,0.01747371896776317,-0.3881858340173786,-0.4882637148526391,0.1020890243046702,870.3296703296703,827.2161172161173,811.9047619047619,866.7032967032967,846.5567765567765,0.016052,0.001282,1.019348,4.755249,-5.667419,-16.964874,1,1,1,1,1,100.000000
2021-11-25 13:46:05.864,0.5764807997796852,1.589964077378066,1.454809855642903,0.7216785906896963,0.4056234622252533,1.047500138843579,0.6764905811745967,0.599957695156634,0.5418379676797459,0.299405169045634,0.1262080862938275,0.3745001129674475,0.634577143250013,-0.01556419071999185,0.04440074836777076,0.516884853375253,0.03831338163256372,-0.3218126389989493,-0.3497097899506392,0.06235230652254643,815.934065934066,816.3369963369963,771.2087912087912,817.1428571428571,794.5787545787546,-0.081360,-0.012329,1.010437,5.487976,-2.811279,-1.435547,1,1,1,1,1,100.000000
2021-11-25 13:46:06.865,1.143494227807004,0.9082295270364573,1.354712422957046,0.8539377963812181,0.8996170722872648,0.5321551765410815,0.5051198924541906,0.5247032363573119,0.9468848440501698,0.05307907370741142,0.4483168614224235,0.7235086539029589,0.3948408911440572,-0.1339469601010988,0.1585593064589034,0.2166579783569164,-0.2086794760380985,-0.4583566993943433,-0.4597912956881556,-0.07887299769108785,841.3186813186813,818.3516483516484,784.5054945054945,834.0659340659341,720.4395604395604,-0.062927,0.014709,1.015869,2.400055,-4.837494,-2.108459,1,1,1,1,1,100.000000
2021-11-25 13:46:07.255,,,,,,,,,,,,,,,,,,,,,,,,,,,,,,,,,,,,,,/muse/elements/blink
2021-11-25 13:46:07.866,1.431449954063016,0.660443472481853,0.730554931377052,1.287913597027797,1.173280183210835,0.4152135395371911,0.1531382171407842,1.102593971914854,1.124701090974438,0.3495384305533244,0.4941738392157061,1.222054685782826,0.5478295735090534,-0.1393697401031727,-0.1345139556481576,0.5681704613439087,-0.2331192897444843,-0.6564690432377739,-0.4092982116077007,0.01760697436491207,834.8717948717949,825.6043956043957,804.2490842490843,832.0512820512821,902.967032967033,-0.106201,0.013062,1.005554,3.581390,-7.566528,-5.876770,1,1,1,1,1,100.000000
2021-11-25 13:46:08.858,1.343462221758734,0.7744478001285667,0.5036628944093055,1.116801123318026,1.12896394598208,0.4203318869238563,0.002535914484850803,1.037024117954123,1.124701090974438,0.5566500437057108,0.4400481249742741,1.222054685782826,0.4556656091583682,-0.1352922188446099,0.03243581840293885,0.562951566027776,-0.156964261203679,-0.5652741863198579,-0.4643039375920852,0.09558389686078635,836.8864468864469,826.8131868131868,799.8168498168499,826.8131868131868,870.3296703296703,-0.075867,0.014404,1.008850,4.246826,-5.480499,-2.504730,1,1,1,1,1,100.000000
2021-11-25 13:46:09.858,0.5828193308502393,-0.003382906130193895,0.1487758112413519,0.464078719486655,0.5439459732843088,-0.4386233341613449,0.03769677321019405,0.3193425987333782,0.5176297385841694,0.09436790981548361,0.02526886650343446,0.5343459824841995,0.1641986361763171,-0.01734937970904743,-0.003270678820684143,0.3916423643583202,-0.2476964192118964,-0.6158100723923617,-0.5140743953416725,-0.02218207991501769,829.2307692307693,825.2014652014652,799.0109890109891,813.919413919414,801.4285714285714,-0.090393,0.020142,1.011169,5.742188,-7.364655,0.216827,1,1,1,1,1,100.000000
2021-11-25 13:46:10.859,0.6125392847332671,0.02195381306421016,0.1835938343599242,0.5908751950756173,0.3089151787390651,-0.2669975934762984,-0.03866553740454075,0.3583464899483534,0.5244706648824639,-0.07053028345294288,-0.06718773481726946,0.5782385635801889,0.08422763208237458,0.0451826497493591,-0.08938136183560545,0.3627221989849768,-0.1317066184540293,-0.5361485403614683,-0.4184653707428,-0.02696693559260322,836.4835164835165,826.4102564102565,806.6666666666667,840.5128205128206,1044.395604395604,-0.091431,0.004272,1.011292,4.314117,-1.211243,-0.942078,1,1,1,1,1,100.000000
2021-11-25 13:46:11.859,0.3753579589993223,-0.04157204213564714,0.2519037095438243,0.7851396610959827,0.2078541393449401,0.005404103051290452,0.2633923209128613,0.6345077672266166,0.5725274200759649,0.1588375388499217,0.08825314893871096,0.5228097876697928,0.2131975393340972,0.06535095876839993,-0.01472297530808801,0.4799554941467057,0.07146675705640523,-0.4657776154918566,-0.4259622453903689,0.05027981011485818,835.6776556776557,821.978021978022,805.0549450549451,824.7985347985348,879.5970695970697,-0.122009,0.020020,1.009949,5.166473,-6.960907,-2.250519,1,1,1,1,1,100.000000
2021-11-25 13:46:12.859,0.4876545186413367,0.6616850636172236,0.6419906818768609,0.8182457751347104,0.01017895311407518,0.2697828859302903,0.1760241038007146,0.4132448999800903,-0.145394177604006,0.4398315716928027,0.1078183350220323,0.381022180920069,0.3298298664476157,-0.0015505472855433,-0.05548750562323727,0.462996320268986,0.0329075531822003,-0.4136696016991932,-0.475259391378189,0.02531262072689617,823.5897435897436,812.7106227106227,798.6080586080586,814.3223443223443,713.5897435897436,-0.104370,0.014404,1.001831,4.785156,-3.715973,-4.104767,1,1,1,1,1,100.000000
2021-11-25 13:46:13.858,0.7663683510398276,0.6908754230156747,0.6176117643246561,0.9230382844427156,0.2104696384697448,0.2016232920835768,0.1294665337734059,0.4447613072164219,0.6771438975713043,0.4331180065590692,0.101328313376276,0.8854542921348624,0.2716006976915681,0.04959716488243588,-0.07938690473023952,0.3018924323839057,-0.1329254965105237,-0.5353257654190974,-0.6065443131259228,-0.04497774458670981,824.3956043956044,827.2161172161173,809.8901098901099,816.7399267399268,888.0586080586081,-0.092773,0.008301,0.999023,3.596344,-3.252411,-4.239349,1,1,1,1,1,100.000000
2021-11-25 13:46:14.858,1.298377400200215,0.0978266692465416,-0.03542627530681065,1.267945507722593,0.9676077383788332,-0.1784121985368386,-0.4007708679370672,0.8985689687784713,1.109544082307431,0.1129626320074743,0.0921604124164134,1.071478159648508,0.3957875623254702,-0.1191797019835487,-0.1469191372439337,0.4126740243795362,-0.04523353159050444,-0.5526714066233098,-0.6561024240903154,-0.07894580356461578,817.5457875457876,817.948717948718,801.8315018315019,804.6520146520147,778.0586080586081,-0.091980,0.013977,1.009033,5.151520,-5.824432,-0.261688,1,1,1,1,1,100.000000
2021-11-25 13:46:15.353,,,,,,,,,,,,,,,,,,,,,,,,,,,,,,,,,,,,,,/muse/elements/blink
2021-11-25 13:46:15.858,0.6892751254907487,0.01244695446030216,0.02424337266166471,0.9052168506719576,0.4858270546607033,-0.1675531033430006,-0.1706118695190374,0.716563036497057,0.7355460622540536,0.0946577402137751,0.2861556611060687,0.7100815235142868,0.2699219507523666,-0.1269900099265321,-0.2102118641352977,0.1345558596568536,-0.007034288304670097,-0.4556644251915591,-0.5304357316149366,0.01955400266991272,826.007326007326,815.934065934066,809.4871794871796,823.5897435897436,664.4322344322344,-0.133850,0.007202,1.011597,4.957123,-3.985138,-2.018738,1,1,1,1,1,100.000000
2021-11-25 13:46:16.859,1.939582957543449,1.207266454245984,1.050602189421052,1.224453387392561,1.371620450726072,0.6764251784904296,0.4435036842009915,0.7213066180494961,0.7856480573174279,0.1181255018007136,0.3457513963253169,0.8837160063942914,0.502606629789022,-0.01940013970143473,0.05417452459960064,0.6141128300714438,-0.05774707428519788,-0.4479418865420849,-0.4544964710946,-0.3136139128211654,745.0183150183151,780.8791208791209,826.8131868131868,757.5091575091575,1063.333333333333,-0.075989,0.018738,1.006409,3.902893,-3.558960,-0.127106,1,1,1,1,1,100.000000
2021-11-25 13:46:17.061,,,,,,,,,,,,,,,,,,,,,,,,,,,,,,,,,,,,,,/muse/elements/blink
2021-11-25 13:46:17.859,1.939582957543449,1.510551617784021,1.109422227227288,1.279255382840379,1.371620450726072,1.029781847214067,0.5192365916430104,0.738458593043253,0.7856480573174279,0.6046148927849656,0.2628598885814066,0.8771366712367142,0.502606629789022,0.002307782213377731,0.2092269668738246,0.6313727816715325,-0.05774707428519788,-0.4652751510555214,-0.4933312670474294,-0.3157137016069581,832.4542124542124,821.5750915750916,807.0695970695971,816.3369963369963,812.3076923076924,-0.105835,0.014221,1.020325,-0.814972,-6.975861,-0.583191,1,1,1,1,1,100.000000
2021-11-25 13:46:18.415,,,,,,,,,,,,,,,,,,,,,,,,,,,,,,,,,,,,,,/muse/elements/blink
2021-11-25 13:46:18.858,1.939582957543449,1.057267579674609,0.8663654485843362,1.279255382840379,1.371620450726072,0.6572130115641645,0.5514341833661061,0.738458593043253,0.7856480573174279,0.6025180506160946,0.3732560891049939,0.8771366712367142,0.502606629789022,-0.07681284485599149,0.02588173023053773,0.6313727816715325,-0.05774707428519788,-0.4232108525863972,-0.393861194512526,-0.3157137016069581,818.3516483516484,820.7692307692308,800.6227106227107,800.2197802197802,774.8351648351648,-0.100830,-0.000061,1.012573,5.121613,-3.917847,-2.377625,1,1,1,1,1,100.000000
2021-11-25 13:46:19.859,0.2191682769871752,0.1784561849079088,0.8028295780000132,0.3014856559391271,0.1658268594488876,-0.1784591871161642,0.5085112920197183,0.4735165516385334,0.3609998398409476,-0.05650110441218433,0.3891535785769654,0.2116353971247138,0.1053668215420044,-0.04555266001905756,-0.03408106205721035,0.2702672870221934,-0.02828925474895087,-0.6093086243832532,-0.4780692196711871,-0.06564032622243733,818.7545787545788,823.992673992674,799.0109890109891,805.0549450549451,745.4212454212454,-0.088135,0.020874,0.993835,7.798309,-7.387085,0.314026,1,1,1,1,1,100.000000
2021-11-25 13:46:20.649,,,,,,,,,,,,,,,,,,,,,,,,,,,,,,,,,,,,,,/muse/elements/blink
2021-11-25 13:46:20.858,0.1229408565633969,0.3978351616995116,0.7404842999342567,0.1909510822761618,-0.09605213122345982,-0.1720565657096673,0.2454477300858692,0.2671710082976461,0.5248902775049141,-0.08877805451881811,0.1885046569193692,0.3434498910819709,0.238519903702504,-0.09125331753997608,-0.1441407728769356,0.2595844396036528,-0.1170600768629304,-0.4951497271739658,-0.6308210431488502,-0.1171089886917576,849.7802197802198,826.4102564102565,797.8021978021978,839.7069597069598,834.8717948717949,-0.064941,0.053101,1.040405,10.303040,-6.998291,-11.357269,1,1,1,1,1,100.000000
2021-11-25 13:46:21.534,,,,,,,,,,,,,,,,,,,,,,,,,,,,,,,,,,,,,,/muse/elements/blink
2021-11-25 13:46:21.859,0.08060601639360122,1.569575930144756,1.580876453812331,1.366854918475906,-0.6671454268122834,1.048439643012826,0.916293906720113,1.146603707279551,0.3082004945760701,0.2443195945811577,0.4187146770957936,1.02198898570161,0.3927992663307983,0.02038896284367444,-0.115920878097347,0.4285922037212278,-0.2385893577018904,-0.2788810389202879,-0.5145784399314286,-0.07642870398506087,830.8424908424909,823.992673992674,796.996336996337,811.9047619047619,808.2783882783883,-0.085205,0.015564,1.009521,-3.080444,-1.226196,27.290344,1,1,1,1,1,100.000000
2021-11-25 13:46:22.260,,,,,,,,,,,,,,,,,,,,,,,,,,,,,,,,,,,,,,/muse/elements/blink
2021-11-25 13:46:22.864,0.08060601639360122,1.484666057934587,1.405404108714752,1.65582495385864,-0.6671454268122834,0.9965872189246727,0.845860504255464,1.450968194475281,0.3082004945760701,0.3187654859395745,0.4301484144309264,1.068923879599383,0.3927992663307983,0.006113262177002904,0.05749399169297288,0.5275441752312416,-0.2385893577018904,-0.2990034671279015,-0.3783112621073674,0.07154832660711623,813.919413919414,812.3076923076924,806.2637362637363,802.6373626373627,697.8754578754579,-0.082581,0.015198,1.001343,3.835602,-6.699219,0.037384,1,1,1,1,1,100.000000
2021-11-25 13:46:23.859,0.4929843838314447,0.3033678192161918,0.873602561912128,0.2945539903697475,0.2149320280203425,-0.09363599416069171,0.4778417968508751,0.3667499160967533,0.3095562731973105,0.2378870452686353,0.3483434841175578,0.3872610571444801,-0.02313478681664094,-0.04992031992426082,0.01978055683969104,0.4980894710214657,-0.04001911188696511,-0.4082031912485633,-0.4889605143649522,0.04382448183167569,815.5311355311355,834.0659340659341,800.6227106227107,799.0109890109891,751.8681318681319,-0.086914,0.009094,1.012695,4.134674,-6.243134,-2.489777,1,1,1,1,1,100.000000
2021-11-25 13:46:24.866,0.5644080903549979,0.5297772519150411,0.4914946606419382,0.5259961716344268,0.4527002211441641,0.1974252200883986,0.04386367970247287,0.4001221833879957,0.7628775866768306,0.06720458659965746,0.2986708153374278,0.6459840260229527,0.07294056932064664,-0.1805207550677038,-0.109398281484554,0.4596605240201475,-0.1207932496719818,-0.5991657945125228,-0.465242313045566,0.001163322071155394,832.0512820512821,827.2161172161173,811.5018315018315,819.96336996337,763.956043956044,-0.089111,0.014771,1.005676,4.800110,-5.278625,-2.302856,1,1,1,1,1,100.000000
2021-11-25 13:46:25.859,0.944304258111715,0.5976371374280678,0.3176346443901293,0.8009313463661375,0.8734820731791224,0.2751109298677698,0.03648722097186148,0.7786371910108046,1.069252956085812,0.09552968157385447,0.2831707140446841,0.9539108070386797,0.2998425991343588,-0.1922622780681266,-0.07172716068462155,0.3112089454563648,-0.2870242403756204,-0.7005629658680116,-0.4779117609734837,-0.06857187082721143,820.3663003663004,811.5018315018315,802.6373626373627,823.1868131868132,1023.040293040293,-0.089600,0.013977,1.005127,4.889832,-5.562744,-1.996307,1,1,1,1,1,100.000000
2021-11-25 13:46:26.858,0.3660583981402432,0.2902059443237936,0.1189554133097276,0.3705938673152749,0.1931395754136796,0.1448342189923487,0.05944689443002235,0.4226707667859577,0.4157272748187078,0.1842889376704284,0.3116117714659965,0.2076272935634812,-0.0682755892627548,-0.2019535185216274,-0.02846797802622146,0.1958583631357755,-0.3764174105985675,-0.6853234822872352,-0.6158343613815982,-0.1179546474945626,813.919413919414,815.5311355311355,803.8461538461539,812.7106227106227,835.2747252747253,-0.079590,0.012878,1.007812,5.069275,-5.764618,-2.220612,1,1,1,1,1,100.000000
2021-11-25 13:46:27.858,0.9086875478949105,0.7596018205210112,0.3450822087594909,0.4644438175007896,0.3138733032915959,0.363903787094209,-0.0419319257146431,0.19428216710547,0.5835022327464853,0.4980673578095485,0.4667927820988511,0.541394716961717,0.1267362249768684,-0.03856018405231429,-0.07237260295269454,0.2673033630762384,-0.2426353325175806,-0.4036192045745862,-0.4462589620507222,0.0109344745633155,822.3809523809524,821.1721611721612,807.0695970695971,813.5164835164835,846.5567765567765,-0.113281,0.026611,1.003418,5.345917,-5.951538,-1.973877,1,1,1,1,1,100.000000
2021-11-25 13:46:28.632,,,,,,,,,,,,,,,,,,,,,,,,,,,,,,,,,,,,,,/muse/elements/blink
2021-11-25 13:46:28.868,1.079828026390464,0.6966129841159071,0.5084323813184281,0.8404418747168796,0.9556092125103267,0.2974278632410364,0.08175775244793124,0.5709627874318352,1.077213653649561,0.311983765151037,0.2967715892957563,0.9093086913215843,0.3917992511691948,-0.09613012196117753,-0.05910410748854721,0.1815997846845274,-0.2417939747105823,-0.3294875429552331,-0.3329772323311389,-0.1045630449769628,834.4688644688645,824.7985347985348,809.0842490842491,835.2747252747253,1106.446886446887,-0.067932,0.011169,1.009460,4.740295,-8.217010,-4.770203,1,1,1,1,1,100.000000
2021-11-25 13:46:29.858,1.431838068220509,1.115008823767625,0.9977177266471519,1.116131411375158,1.22532729688959,0.5999127187277041,0.5646390453052695,0.8474904184981807,1.148284732072884,0.6005966456785402,0.5259744217902055,0.9157206056375838,0.4977658155687587,-0.06815402408506496,-0.1578377788494027,0.366333259382839,-0.03745390645164667,-0.3176020017811774,-0.3460617300512121,0.02317405722201977,824.3956043956044,811.0989010989011,806.2637362637363,811.5018315018315,895.7142857142858,-0.094299,0.002197,1.002319,3.947754,-7.559052,-1.196289,1,1,1,1,1,100.000000
2021-11-25 13:46:30.858,1.354254403718247,1.124814756152105,0.8713518616978971,1.002351918357781,1.134137884692826,0.7021311565565757,0.5687722735686936,0.8610224801416348,1.164003992183465,0.5715979828536691,0.6656050119693826,0.9540016181826789,0.4614954999175223,-0.1179158594323434,-0.01211469846228104,0.4120815678951018,-0.0422525238328563,-0.3051566922662687,-0.568268774317095,-0.1723077622520833,830.8424908424909,830.8424908424909,795.3846153846154,814.7252747252747,776.8498168498169,-0.060364,0.033203,1.021790,5.039368,-8.359070,-10.213318,1,1,1,1,1,100.000000
2021-11-25 13:46:31.210,,,,,,,,,,,,,,,,,,,,,,,,,,,,,,,,,,,,,,/muse/elements/blink
2021-11-25 13:46:31.866,1.140157885795291,1.221515473840519,0.9926728869849389,1.278561466315193,0.6837966280893731,0.8057970791218895,0.5742936277343127,0.7906462485606642,1.098277883558695,0.500724776111929,0.7175383190715735,1.086421130700921,0.5306668677815847,-0.01161802491946478,-0.037736441496213,0.4998891018273184,-0.08722480661647511,-0.3947684040741213,-0.377283598603214,-0.03278552223558286,826.007326007326,805.4578754578755,805.4578754578755,812.7106227106227,791.3553113553114,-0.058472,0.026794,1.009277,4.844971,-6.048737,-0.456085,1,1,1,1,1,100.000000
2021-11-25 13:46:32.867,1.181216747055814,0.645484950312236,0.7419732325304504,1.293831938639366,0.7802089569366004,0.2749520353830029,0.3517807651751054,0.9060595868688039,1.098277883558695,0.293554140294543,0.5971545778256384,1.089759399897481,0.4745098415041349,-0.03617934845019322,-0.14936265356988,0.5255337511399868,-0.1796087191063218,-0.5407386355941783,-0.3289896097550941,-0.02218637211641076,820.3663003663004,809.8901098901099,804.6520146520147,805.8608058608058,758.3150183150184,-0.078552,0.013428,1.008606,2.654266,-3.491669,-2.781372,1,1,1,1,1,100.000000
2021-11-25 13:46:33.724,,,,,,,,,,,,,,,,,,,,,,,,,,,,,,,,,,,,,,/muse/elements/blink
2021-11-25 13:46:33.868,0.9551189030751955,0.7505745470342163,0.7662390200242514,1.157816202082212,0.7845520146800211,0.3319788912043861,0.3747032205334016,0.8481945491092912,1.065057314264221,0.4019062531583295,0.5565459505497392,0.9841690258882799,0.3297809852185576,-0.02222700129310799,-0.02172956497125705,0.4949095769323856,-0.2269096420176914,-0.4785596541113881,-0.4380859540387426,-0.09562820741076963,816.7399267399268,807.8754578754579,808.6813186813187,815.5311355311355,695.4578754578755,-0.086121,0.015564,1.008118,4.553375,-4.777679,-0.882263,1,1,1,1,1,100.000000
2021-11-25 13:46:34.871,1.050960838833828,0.7601045409166719,0.2997118992166169,0.8910400148040077,1.032552868696722,0.4181953591490907,0.1168656794770223,0.8487621703051602,1.192218524944778,0.4886668231976711,0.4729830431896618,0.9115550105317964,0.4052964528960153,-0.1371308527427471,-0.09544728771739334,0.3914502099536557,-0.2971435464015241,-0.4088528927970625,-0.3786587958421339,-0.07641768414161267,846.1538461538462,833.2600732600733,792.1611721611722,822.3809523809524,844.9450549450549,-0.079163,0.022339,1.007385,5.914154,-5.144043,-3.902893,1,1,1,1,1,100.000000
2021-11-25 13:46:35.858,0.7581441231782929,0.7382925535494371,0.429112583000206,0.4924129162107293,0.4879812465237142,0.1523854238243115,0.2724144039558468,0.4744848624312669,0.7153108966249152,0.4252548797518835,0.3258468428512336,0.7985921081062911,0.3672286786978,0.0854331597108824,-0.001007879978835629,0.4432526315925167,-0.1981317478029496,-0.4881336869625881,-0.4912775662665574,-0.103298058693458,842.9304029304029,810.6959706959707,810.6959706959707,830.8424908424909,938.4249084249085,-0.055420,0.017944,1.006958,3.544006,-7.469330,-2.362671,1,1,1,1,1,100.000000
2021-11-25 13:46:36.858,1.137528713361677,0.571012630196197,0.3151162972499716,1.120144590391303,0.5707606007132647,-0.04895002508249745,0.06669598054379393,0.4094384155508383,0.8749190345482522,0.4558175686476206,0.2928804492121224,1.020892497256386,0.3069353174690819,-0.04655559397047718,-0.2113508195722925,0.4941745315007659,-0.2384406315032913,-0.5990406426287586,-0.7429764551925923,-0.1461146302337454,814.7252747252747,805.8608058608058,803.8461538461539,807.8754578754579,724.8717948717949,-0.091614,0.025208,1.013916,4.785156,-7.671204,0.097198,1,1,1,1,1,100.000000
2021-11-25 13:46:37.859,1.135912878360056,0.3354510881863643,0.1278799123362881,1.15557500221966,0.5584114018007411,0.01140414978872306,0.03966833223631818,0.5158651935662518,0.8641483176458449,0.05719906632426806,0.1925109481797213,0.9926652588687931,0.337677517341563,-0.03009504119688754,-0.2375578009729085,0.4711837511477067,-0.2804677507657595,-0.5451504100890385,-0.7572832759888446,-0.0977956607242083,819.96336996337,807.4725274725275,813.1135531135532,817.948717948718,864.2857142857143,-0.064148,0.016418,0.999878,4.478607,-3.521576,-3.798218,1,1,1,1,1,100.000000
2021-11-25 13:46:38.863,0.6887304039591835,0.5542275996688033,0.2568931304469809,0.6347356660071786,0.139041860911361,0.1334935423264185,0.1296581812663568,0.3313172904854704,0.440320102889113,0.2514157966827008,0.3516738269256683,0.6211304866979261,0.2037865151596944,0.06927295081929022,-0.06307846953598638,0.4801598487073963,-0.2263336695681991,-0.2742211754276034,-0.5403779771924161,-0.04974605417986676,812.7106227106227,810.2930402930403,807.8754578754579,813.1135531135532,811.0989010989011,-0.095032,0.008057,1.005371,7.177734,-3.401947,-1.263580,1,1,1,1,1,100.000000
2021-11-25 13:46:39.857,0.9848926036303308,0.720116187206532,0.5135351160184575,0.9438548392542909,0.7421700215775352,0.2708167765036766,0.4671646471516895,0.8270520396564808,1.025663669057242,0.428181712111602,0.3919146127705239,1.13089313671175,0.3721275347468512,0.02454971149808574,-0.01061146767224953,0.378862822582921,-0.1749793841686466,-0.4779456555027232,-0.6160508647643405,-0.06436901759459771,832.4542124542124,811.0989010989011,817.1428571428571,827.2161172161173,856.2271062271062,-0.053101,0.021912,1.011047,4.553375,-6.616974,-2.347717,1,1,1,1,1,100.000000
2021-11-25 13:46:40.860,1.217769123314225,0.6764289084376994,0.4980046549901774,1.207841125595016,0.9817379065564816,0.4198876020464185,0.4400261053453178,1.070737328661671,1.025261936573713,0.4571305785391199,0.3494555660136175,1.17326026759819,0.2659207685222061,-0.09364148141829977,-0.09090424834211366,0.2485444976799137,-0.1257742983979931,-0.6599840753071691,-0.5660744616436244,-0.02061097973903593,823.5897435897436,812.7106227106227,810.2930402930403,810.6959706959707,807.8754578754579,-0.077698,0.029053,1.008667,4.433746,-4.545898,0.381317,1,1,1,1,1,100.000000
2021-11-25 13:46:41.858,1.231165132302813,0.5581207726379048,0.6641695194583038,1.154728341979979,0.8697788620124424,0.347670580250414,0.1650233030763366,0.9207537092201554,1.106117435812336,0.3992314921942167,0.3420235697009243,1.264938492240715,0.3049200467753814,-0.05980289735593264,-0.05876707755187495,0.3794099251280476,-0.2192282389903332,-0.6164087186531899,-0.5585064129914481,-0.03353289436322506,801.025641025641,809.0842490842491,815.1282051282052,806.2637362637363,716.4102564102565,-0.086182,0.035522,1.017090,6.916046,-0.007477,-3.573914,1,1,1,1,1,100.000000
2021-11-25 13:46:42.259,,,,,,,,,,,,,,,,,,,,,,,,,,,,,,,,,,,,,,/muse/elements/blink
2021-11-25 13:46:42.858,1.479366569504995,0.7619171707219182,0.9068043502273948,0.6460575831172802,0.5982895203250753,0.5002740635820299,0.3766918226706446,0.3432402283238093,1.012315362923539,0.6775028093193616,0.1331055391658514,0.8507107824125055,0.2449169016965762,0.08170466130379807,-0.009020774280590381,0.2170436832791855,-0.2190534906438429,-0.465217606106331,-0.5890412653993014,-0.1297933309388196,826.4102564102565,823.5897435897436,786.5201465201466,809.4871794871796,752.2710622710623,-0.094666,0.022156,0.996155,3.671112,-4.344025,-4.059906,1,1,1,1,1,100.000000
2021-11-25 13:46:43.858,1.484572214777349,1.170546925562232,1.033940683376484,0.3534600003764151,0.9560722298072536,0.7779959339836429,0.4754454148535776,-0.09116358197538287,0.4956507623143759,0.7371207871221529,0.4103992211182019,0.5013054765084579,0.1812218574352535,0.1801705502884259,-0.04047901268633652,0.3763227797184068,-0.2446474115375874,-0.3960403931429355,-0.6086748421894471,-0.07141105687122473,832.4542124542124,812.7106227106227,807.8754578754579,817.1428571428571,949.3040293040293,-0.058960,0.023926,1.009644,6.160889,-5.106659,-4.254303,1,1,1,1,1,100.000000
2021-11-25 13:46:44.331,,,,,,,,,,,,,,,,,,,,,,,,,,,,,,,,,,,,,,/muse/elements/blink
2021-11-25 13:46:44.858,1.656376774384244,1.256101338155727,1.048582338191681,0.2751695585850226,0.9488426667563271,0.874002920678693,0.5680308299305413,-0.01062954107845415,0.5456674914203239,0.47294865765552,0.5242473859613858,0.4694852223928315,0.2079775996970468,0.0240916991076389,0.1057955894218552,0.3870729021653029,-0.2732318706717543,-0.4525001835028055,-0.6736623989495216,-0.04932834723870796,827.2161172161173,815.1282051282052,807.4725274725275,817.5457875457876,693.4432234432235,-0.063782,0.024353,1.015991,3.401947,-8.000183,-0.097198,1,1,1,1,1,100.000000
2021-11-25 13:46:45.858,1.01952968524128,0.9609498852874221,0.7807830875893372,0.4899062388914068,0.3027701864397649,0.5173044122665624,0.3957273895446276,0.3888300485079084,0.3215556236505973,0.1845755655827047,0.1497342701404829,0.3371429736519402,-0.0780763199062655,-0.1650687416346817,0.132963995673066,0.3329498889978601,-0.4085584702343538,-0.4831126835316221,-0.5488778551265331,-0.06462418313736298,720.0366300366301,838.4981684981685,796.996336996337,691.4285714285714,754.6886446886447,-0.088318,0.021057,1.011719,7.222595,-5.510406,-6.265564,1,1,1,1,1,100.000000
2021-11-25 13:46:46.000,,,,,,,,,,,,,,,,,,,,,,,,,,,,,,,,,,,,,,/muse/elements/blink
2021-11-25 13:46:46.863,0.9040879398372693,1.244565856163575,0.8938106606552739,0.5125728984623829,0.3863102357997715,0.8195889271595097,0.2860667200801696,0.4754133582682685,0.2774400896033546,0.4577122746811204,0.3044498155380493,0.3137748202085373,-0.1679951459272109,-0.0652579177981556,0.05316763323567696,0.2905198323576033,-0.3881253399591459,-0.4167404718306353,-0.4037816509081456,-0.0664704832485752,824.7985347985348,812.3076923076924,813.1135531135532,825.6043956043957,792.1611721611722,-0.080200,0.013184,1.006042,5.951538,-6.699219,-2.056122,1,1,1,1,1,100.000000
2021-11-25 13:46:47.857,0.6022188526386161,0.7739544592034784,0.1690709101891534,0.5045067066383795,0.1944431674575723,0.4140572200035594,-0.1235941278936062,0.2580338493972899,0.1102352695441604,0.3215173691917276,0.1368911824200904,0.1179114236235558,0.1551698083987437,-0.2192766360102557,-0.0360914420368131,0.222258054720948,-0.3881562155124322,-0.4051231470100194,-0.4954245519072067,-0.1433482975686884,834.8717948717949,819.1575091575091,805.4578754578755,819.5604395604396,817.1428571428571,-0.078613,0.002930,1.011475,5.944061,-3.379517,-5.959015,1,1,1,1,1,100.000000
2021-11-25 13:46:48.858,0.4374658326876326,0.1066157687485665,-0.2658443750162722,0.4662619807361543,0.4061768460682334,-0.1388535611699171,-0.4158887253964991,0.4082939614136155,0.6454808928663925,0.09377598633249494,0.1412606032142909,0.3620538811805326,0.1880569230673616,-0.1521289707919131,-0.1759412294821642,0.2162794801520774,-0.2348169516064761,-0.4612835416989158,-0.5605025891163569,-0.05163878631002179,815.934065934066,800.6227106227107,820.3663003663004,825.6043956043957,734.1391941391942,-0.084656,0.011047,1.005615,3.274841,-5.921631,-0.082245,1,1,1,1,1,100.000000
2021-11-25 13:46:49.372,,,,,,,,,,,,,,,,,,,,,,,,,,,,,,,,,,,,,,/muse/elements/blink
2021-11-25 13:46:49.858,0.6511152889498182,1.022150636824391,0.8005558402478081,0.6216488430251133,0.3437926080535819,0.7668363840563427,0.390311840626599,0.2636472367892745,0.6164226546548048,0.6799346452568451,0.5812189059603953,0.4124979813551231,0.1541210665581163,-0.05768729747536028,-0.02109704724489081,0.2756011126559182,-0.2708158227863534,-0.4775960531972741,-0.5051911400453263,-0.177570740028318,820.3663003663004,800.2197802197802,814.3223443223443,829.2307692307693,797.3992673992674,-0.067017,0.018921,0.998230,6.018829,-5.001984,-4.074860,1,1,1,1,1,100.000000
2021-11-25 13:46:50.281,,,,,,,,,,,,,,,,,,,,,,,,,,,,,,,,,,,,,,/muse/elements/blink
2021-11-25 13:46:50.857,0.7301623566881571,1.248842503408787,1.231135001917436,0.6343657178335081,0.1682635611031271,0.9041771538223785,0.6936773819900854,0.2562320096322186,0.3130131347264462,0.7967190443963381,0.6038700211802991,0.3280939851943726,0.2209488856077537,-0.09108076152810778,0.07785639325651508,0.4005087304113074,-0.2671476686781649,-0.4478728664460722,-0.4146211248088023,-0.2367033865850889,826.8131868131868,813.5164835164835,808.2783882783883,815.1282051282052,706.3369963369963,-0.076904,0.036865,1.011047,4.358978,-4.904785,-1.555176,1,1,1,1,1,100.000000
2021-11-25 13:46:51.858,1.927547095057051,0.9084042176250756,1.119753638997998,0.9330437375293305,1.184378132228091,0.3797717724623413,0.6263774152052773,0.6424405031316517,0.6120953911381929,0.5760455800092305,0.4927455340366423,0.8459598755970635,0.4312505857328203,-0.03933083487708811,0.03669415716368519,0.5159613243690523,-0.2170845886199823,-0.5422313111744957,-0.385335127684052,0.07338208526199257,797.3992673992674,814.7252747252747,811.0989010989011,812.7106227106227,724.0659340659341,-0.056213,0.000000,1.000671,5.779572,-5.540314,2.385101,1,1,1,1,1,100.000000
2021-11-25 13:46:52.862,1.736837115565715,0.7358086359776151,0.4884805559349124,1.148642710647816,1.195906052051072,0.4038248293327321,0.2574035762933496,1.215893258807429,1.194708405780462,0.5190696614833006,0.2476390310548921,1.31208919752705,0.4468603711922884,0.0001571322196103806,-0.0213402415434508,0.5478417138028665,-0.2413522133067004,-0.6996740794190016,-0.4302331184271926,0.06513549520690397,821.5750915750916,803.8461538461539,810.6959706959707,813.1135531135532,859.047619047619,-0.079468,0.011047,1.008240,5.158997,-3.828125,0.157013,1,1,1,1,1,100.000000
2021-11-25 13:46:53.858,1.138124774669258,0.6055608408000031,0.3201889261883182,0.7386500308965386,0.8367000423391017,0.4202569901333942,-0.07182041692200891,0.7243398017686079,1.068306023017594,0.5268888165191284,0.2088967225850528,0.9538191100165837,0.397484868019725,-0.1230246723390265,-0.1763591547867869,0.3067300457952339,-0.2831428884088141,-0.4643879752804072,-0.5940071743843195,-0.07396600976591647,818.3516483516484,808.2783882783883,812.3076923076924,821.1721611721612,783.2967032967033,-0.067932,0.007141,1.006409,4.777679,-4.725342,-1.854248,1,1,1,1,1,100.000000
2021-11-25 13:46:54.857,0.4296080601304784,-0.1089785164112819,-0.2380003614220687,0.9982540551455281,0.4566900160733827,-0.1231488655209719,-0.04288742889745264,0.2878648602585736,0.6281975467363938,0.235344977460386,0.04904581575785355,0.4150303290139282,0.2550777637793649,-0.2267123893165201,-0.2017148862275414,0.2908954416333953,-0.2921161806960154,-0.4229907452253036,-0.6489553101973332,-0.3209065938140179,776.8498168498169,808.6813186813187,807.8754578754579,800.6227106227107,718.8278388278388,-0.047974,0.010559,1.009583,4.044952,-4.358978,-2.699127,1,1,1,1,1,100.000000
2021-11-25 13:46:55.390,,,,,,,,,,,,,,,,,,,,,,,,,,,,,,,,,,,,,,/muse/elements/blink
2021-11-25 13:46:55.866,1.152402313485928,-0.03317312884757481,0.7803946799625014,0.7139361731659809,0.5102859689582863,0.01564317017263948,0.4990628877363665,0.2771087812131704,0.5447175161739028,-0.04428527942627199,0.1844754305415297,-0.03873977760401517,0.1827355958026656,-0.241770359122024,-0.1097064917121037,0.3790905717310714,-0.3233722753247722,-0.4772852721241277,-0.5353608223986566,-0.1737551365342723,809.8901098901099,818.3516483516484,801.8315018315019,820.3663003663004,868.7179487179487,-0.057495,0.029358,1.012451,5.757141,-6.228180,1.712189,1,1,1,1,1,100.000000
2021-11-25 13:46:56.858,0.5810216791651924,0.4615239769130964,0.9550828642916624,0.848895027395001,0.06661189443599626,0.155798391859134,0.5681063745652852,0.4397721623765688,0.1416180921772009,0.3423811269182472,0.1864604925212617,0.2596483414713354,0.1848997934647883,-0.219271913050584,-0.1140084867814689,0.2306185227259814,-0.5191308188030365,-0.3035598760958994,-0.3221609312019992,-0.01738605109996251,828.8278388278388,812.7106227106227,813.5164835164835,809.4871794871796,732.9304029304029,-0.058716,0.008057,1.005859,4.545898,-3.887939,-2.422485,1,1,1,1,1,100.000000
2021-11-25 13:46:57.867,1.181773242721256,0.5774713560139773,0.3727440958378597,0.7000417820316687,0.4126466069631398,0.079733422239618,0.06991108990381326,0.269088809244031,0.7795536487006122,0.4045974144197345,0.1164987958037597,0.3034696971341355,0.2901725553570907,-0.2303141288792959,-0.1333021310065464,0.254319708548842,-0.3200566333270756,-0.435333890096721,-0.3974995246493839,-0.05110486308610963,828.8278388278388,807.8754578754579,803.040293040293,810.6959706959707,820.7692307692308,-0.063171,0.014648,1.008850,4.732819,-6.026306,-2.355194,1,1,1,1,1,100.000000
2021-11-25 13:46:58.810,,,,,,,,,,,,,,,,,,,,,,,,,,,,,,,,,,,,,,/muse/elements/blink
2021-11-25 13:46:58.857,1.663784018071551,0.9892899539098935,0.7365832715506878,0.6675365723122429,1.046697044997534,0.4525547668102428,0.3039887632146597,0.09945990825517285,0.9795279570644889,0.5097573168053887,0.1591669447051162,0.3229922934144466,0.3306408049043627,-0.1846666082794753,-0.1711399269540439,0.2566784687746594,-0.04943323476164382,-0.4804660572728932,-0.4865992785404716,-0.0476081149880349,828.4249084249085,811.9047619047619,811.9047619047619,832.0512820512821,795.7875457875458,-0.063110,0.003601,1.011841,3.895416,-4.000092,-2.056122,1,1,1,1,1,100.000000
2021-11-25 13:46:59.858,1.213860902699609,1.298770344619326,0.9257456086753013,0.7714958292040255,0.9025722229607689,0.6572901599899756,0.3745614400058375,0.4118247522238669,0.8342069785097566,0.4907548092495342,0.197955000479607,0.3991756289425553,0.2777072536252539,-0.07320107238489677,-0.08153864523134405,0.1680696486985227,-0.1196836454684173,-0.3480235923825333,-0.370768850839253,-0.1838411984871968,797.3992673992674,809.8901098901099,815.5311355311355,821.1721611721612,695.0549450549451,-0.067383,0.021851,1.003906,5.570221,-4.934692,0.411224,1,1,1,1,1,100.000000
2021-11-25 13:47:00.858,0.7183418240299498,0.4673471739835276,0.2317320420419984,0.498078932243854,0.2843070423607649,0.09026877005464264,-0.08865562974645776,0.333077305393946,0.5448075988021365,0.2115652243483783,0.2568582289396942,0.1596609514110235,0.02127193579949315,0.01197295810512823,-0.1320199229716584,0.3043223819917049,-0.435664682507974,-0.3980145009769353,-0.503699306781666,-0.1651962158456673,813.5164835164835,812.3076923076924,813.5164835164835,817.1428571428571,804.6520146520147,-0.079346,0.018250,1.009583,3.671112,-3.813171,-2.422485,1,1,1,1,1,100.000000
2021-11-25 13:47:01.858,0.2938877468299073,-0.3881001869399442,-0.1491966523293659,0.4355922337824945,0.2113663910043694,-0.05496071926531437,0.009961678510419642,0.3808532589246665,0.2137361962602357,0.2071486143574854,0.2428748844146837,0.2452952406465287,0.06393120160657935,0.03646685895366188,-0.1163845025519916,0.2271775923698685,-0.2875175705473209,-0.3787703880810039,-0.5133287757935865,-0.2593513501288341,819.1575091575091,812.3076923076924,809.8901098901099,818.3516483516484,890.0732600732601,-0.062988,0.008972,1.007446,4.628143,-4.493561,-1.794434,1,1,1,1,1,100.000000
2021-11-25 13:47:02.858,0.6853198846011476,-0.06131277631737528,-0.1906490749663058,0.6285377073753066,0.5808853776508921,-0.2284219780931962,-0.1015812198918953,0.5918451309876872,0.6810990377128505,-0.0197513526084959,0.2240153151894544,0.6636079953706616,0.1505489849782207,-0.004094421386750507,-0.0838840974995467,0.329155319243078,-0.2090460135212044,-0.3043757703163893,-0.4833263032639192,-0.1203419782658386,805.8608058608058,812.3076923076924,808.2783882783883,808.6813186813187,820.7692307692308,-0.058228,0.011414,1.008606,4.912262,-6.078644,-2.459869,1,1,1,1,1,100.000000
2021-11-25 13:47:02.884,,,,,,,,,,,,,,,,,,,,,,,,,,,,,,,,,,,,,,/muse/elements/blink
2021-11-25 13:47:03.858,1.172694421558347,0.09355356915365987,0.01376762948302016,1.245405744559467,1.007972508340973,-0.01087610551299906,-0.2463202943431794,1.074678094498497,1.247257435439299,0.009538728763899542,0.2597476838058241,1.316814411888295,0.3000135157409448,-0.01868971858801328,-0.03849217086299198,0.5054673033543617,-0.3004633969752549,-0.4018681384737385,-0.473774955639686,0.01499363934064436,823.1868131868132,809.8901098901099,808.2783882783883,825.6043956043957,807.4725274725275,-0.088379,0.009888,1.009583,3.334656,-6.818848,-5.929108,1,1,1,1,1,100.000000
2021-11-25 13:47:04.862,0.7053783379219922,0.4211104172181809,0.3096738403447345,0.9820826729424449,0.522882937048977,0.2587692222697299,-0.05343494432953283,0.7757545596664535,0.9749022664343355,0.2050599378094995,0.3791840889159582,1.092008219214292,0.3518960132860056,0.1011380262628685,0.04094612707297585,0.6393574328523587,-0.3673405115827514,-0.4562555200543048,-0.4516536253416281,-0.06991683608735749,815.934065934066,803.040293040293,817.1428571428571,816.3369963369963,843.3333333333334,-0.080994,0.016541,1.003479,6.003876,-4.859924,-1.570129,1,1,1,1,1,100.000000
2021-11-25 13:47:05.756,,,,,,,,,,,,,,,,,,,,,,,,,,,,,,,,,,,,,,/muse/elements/blink
2021-11-25 13:47:05.858,0.8525510495164055,0.750021702600752,0.8472825818976314,0.89393030411456,0.4408771306041589,0.2179390961738636,0.2226839217699319,0.6901325949983371,1.188420696399452,0.4020324915180141,0.6387795041099649,1.245221528671428,0.2406818940622909,0.05391789847435022,-0.04978128136376858,0.4981824752407586,-0.2828747496583313,-0.5145218432703577,-0.6206976059063884,-0.07179093620833182,835.6776556776557,806.2637362637363,818.7545787545788,839.3040293040293,767.5824175824176,-0.082397,-0.004761,0.998352,4.545898,-5.024414,0.770111,1,1,1,1,1,100.000000
2021-11-25 13:47:06.858,1.319232623002652,0.93116928162332,1.048497268648201,1.426493530427597,0.9366805578375716,0.3801815708214077,0.4647068860565995,1.190881383798293,1.339736914266825,0.4344763040342196,0.6730676554912769,1.362446891920025,0.4185557944559804,0.08703797775459665,-0.07179837183506614,0.6048714878034894,-0.120568230566856,-0.5715147076451511,-0.5803866651540966,-0.05910418847920512,781.2820512820513,805.4578754578755,792.5641025641025,743.0036630036631,771.2087912087912,-0.055908,0.007019,1.003601,3.319702,-7.132874,-2.160797,1,1,1,1,1,100.000000
2021-11-25 13:47:07.108,,,,,,,,,,,,,,,,,,,,,,,,,,,,,,,,,,,,,,/muse/elements/blink
2021-11-25 13:47:07.463,,,,,,,,,,,,,,,,,,,,,,,,,,,,,,,,,,,,,,/muse/elements/blink
2021-11-25 13:47:07.754,,,,,,,,,,,,,,,,,,,,,,,,,,,,,,,,,,,,,,/muse/elements/blink
2021-11-25 13:47:07.858,1.087395886018437,1.005465194688151,0.8930927289541916,1.245350956011389,0.8011853150892837,0.4037802232947772,0.4669105924640675,0.9086871006987485,1.168819184340774,0.5212409982817297,0.4045644310620896,1.150977436666039,0.3503873085907652,-0.02808536908550905,-0.03528689653754163,0.527950182285882,-0.3095843379058046,-0.7442230784754608,-0.4457250688152514,-0.08440654269993747,850.5860805860806,810.2930402930403,807.4725274725275,857.8388278388279,847.3626373626374,-0.100098,0.006714,1.003845,4.867401,-2.953339,-4.515991,1,1,1,1,1,100.000000
2021-11-25 13:47:08.373,,,,,,,,,,,,,,,,,,,,,,,,,,,,,,,,,,,,,,/muse/elements/blink
2021-11-25 13:47:08.858,0.9423533878743257,1.289570447315272,1.024691153221737,1.209419430128181,0.8550587579321302,0.8268952298524088,0.5096352791536004,0.995426709880487,1.165680161484845,0.5850313073626985,0.2588127619635636,1.119759687411672,0.1856837439554492,0.03877921209208766,0.009768996860997419,0.5108686974422848,-0.4992279975421064,-0.4213546319582221,-0.4572736708940741,-0.09412309605549604,789.7435897435897,813.919413919414,810.6959706959707,809.0842490842491,718.021978021978,-0.083923,0.000000,1.001038,4.530945,-4.897308,-0.134583,1,1,1,1,1,100.000000
2021-11-25 13:47:09.858,1.246602678767024,0.9991073378933049,0.4787252545166966,0.6363000114191142,0.167812834866027,0.5792024136226585,-0.01277989203820885,0.2879622745669835,0.2707156257021613,0.2485584040162959,0.1885891523712637,0.3994613382575717,0.2526102215211766,0.006937829226081983,-0.1769763295413277,0.5025150718489371,-0.1634702309344557,-0.2754691620547203,-0.504838860589174,0.003269252723424365,818.7545787545788,810.6959706959707,807.4725274725275,794.981684981685,777.6556776556777,-0.068481,0.024780,1.011536,5.981445,-3.835602,0.186920,1,1,1,1,1,100.000000
2021-11-25 13:47:10.858,1.480390317598996,0.6599106472988834,0.5898536679739677,1.237567343205895,0.5201679158581117,-0.09115531758705211,-0.247849571303168,0.4885114807930401,0.4349900040240526,0.3714960105918971,0.03770792465370376,0.8345368241564004,0.2821034183837492,0.1109673589324466,-0.1088762910618516,0.4610452981229594,-0.1360367237760705,-0.4781000236257574,-0.6660777953562615,0.04432480486590987,805.8608058608058,801.4285714285714,803.8461538461539,812.7106227106227,785.3113553113553,-0.064880,0.012268,0.999939,3.925323,-3.798218,-3.043060,1,1,1,1,1,100.000000
2021-11-25 13:47:11.419,,,,,,,,,,,,,,,,,,,,,,,,,,,,,,,,,,,,,,/muse/elements/blink
2021-11-25 13:47:11.858,1.260091786237565,0.7327681462641501,0.5926613493035183,1.138542355339238,0.8401698778446325,-0.09140774750170289,0.05080295003504876,0.7842236329295438,1.052244021710972,0.3169805300122759,0.116176999226042,1.023862868777874,0.3519551439915055,0.07253415050203664,-0.07558157880528539,0.5139023677668442,-0.200381366024046,-0.5905575602758933,-0.5384383769928279,-0.06070687747715287,817.948717948718,811.5018315018315,817.1428571428571,822.3809523809524,711.1721611721612,-0.078186,0.010559,1.003540,4.403839,-8.620758,-2.168274,1,1,1,1,1,100.000000
2021-11-25 13:47:12.463,,,,,,,,,,,,,,,,,,,,,,,,,,,,,,,,,,,,,,/muse/elements/blink
2021-11-25 13:47:12.858,1.252437017869872,0.9141643168570116,0.8357427582877757,1.322404303159233,0.9616672536134798,0.3478126874685732,0.5440705293883019,0.940876855256232,1.052244021710972,0.326343277306344,0.2448943706207609,1.023862868777874,0.364552866480217,-0.06612985362101638,-0.08580105282676856,0.536170451269497,-0.1465934092786848,-0.6642280931166685,-0.4055366093020762,-0.06111006916743954,818.3516483516484,808.2783882783883,813.1135531135532,820.3663003663004,780.0732600732601,-0.083313,0.021240,1.009460,4.478607,-4.979553,-2.564545,1,1,1,1,1,100.000000
2021-11-25 13:47:13.151,,,,,,,,,,,,,,,,,,,,,,,,,,,,,,,,,,,,,,/muse/elements/blink
2021-11-25 13:47:13.752,,,,,,,,,,,,,,,,,,,,,,,,,,,,,,,,,,,,,,/muse/elements/blink
2021-11-25 13:47:13.858,1.012056192255872,1.313001966580483,1.097355694741727,0.9787206032477888,0.3244770065305601,0.8674100937237728,0.784303864313082,0.1696910987755265,0.3598833183828191,0.4368509219763237,0.3092742489615052,0.3755231568534524,0.1298458635271479,0.01740781721591454,0.0467443376399128,0.3117010234500544,-0.2945277954839408,-0.3113004933628982,-0.262740391251941,-0.3228759186081238,806.2637362637363,807.4725274725275,806.2637362637363,824.3956043956044,822.3809523809524,-0.070435,0.018127,1.002686,4.306641,-4.224396,-3.222504,1,1,1,1,1,100.000000
2021-11-25 13:47:14.857,1.054468908810258,0.9436149511901477,0.688222565368943,1.009040794841391,0.6531440791340098,0.6398630555975294,0.368189133562983,0.8325912055586456,0.5613154875998891,0.3279792851694707,0.2881589077474088,0.6442712300938109,0.2344249841654379,-0.08996861345185776,-0.1008183174093119,0.4536038289874493,-0.3837742731426332,-0.3409205934413643,-0.37088696503063,-0.1761966421430739,818.7545787545788,815.934065934066,811.0989010989011,816.7399267399268,765.1648351648352,-0.104919,0.036011,1.014465,4.822540,-4.089813,-3.985138,1,1,1,1,1,100.000000
2021-11-25 13:47:15.868,1.009203987275474,0.09314403103748502,0.07135581077855208,0.9905390418081849,0.5387565483510209,0.01784331959324199,-0.3513984461483652,0.6655410582734305,0.4892178232730262,0.2409442879094752,0.1603932241210164,0.4997656707370854,0.2300779380593755,-0.04898521771598872,-0.2485715565006674,0.4009502357235342,-0.2220753374954965,-0.4468943948864512,-0.5744584898792199,-0.1572636887398954,818.3516483516484,808.6813186813187,799.4139194139194,821.1721611721612,794.1758241758242,-0.056458,0.014526,0.999695,8.112335,-4.523468,3.693542,1,1,1,1,1,100.000000
2021-11-25 13:47:16.871,1.117664419716306,0.2585372607225866,0.2630407703550858,0.9408789840901669,0.8630259219257203,0.06283894512802654,-0.06056791428857924,0.9866693519191453,1.019107246196555,0.2353767283734841,0.2422060519504247,1.12831349123996,0.4390601255195351,0.04088592999779984,0.01101166434010353,0.460105804276576,-0.1008604501721137,-0.5008243114536581,-0.4581199634585958,-0.1139468560440223,809.4871794871796,805.0549450549451,809.8901098901099,811.5018315018315,945.6776556776557,-0.073486,0.016296,1.010925,2.078552,-7.274933,-3.125305,1,1,1,1,1,100.000000
2021-11-25 13:47:17.858,1.289611077891076,-0.02364795277977614,0.1113712859317062,0.9841662202100309,0.8731882232584469,-0.1316266655177712,-0.08028765111980253,0.9167229003759897,1.02970453345233,0.03372566498377618,0.2511947916437323,1.12831349123996,0.3130692058544803,-0.0373519195699809,0.02072212934443945,0.4650966850465673,-0.275172657256293,-0.4918352172860458,-0.4825179082910582,-0.004170044957769898,834.4688644688645,825.6043956043957,803.040293040293,819.96336996337,735.3479853479854,-0.072754,0.010315,1.003357,5.031891,-4.815063,-2.736511,1,1,1,1,1,100.000000
2021-11-25 13:47:18.733,,,,,,,,,,,,,,,,,,,,,,,,,,,,,,,,,,,,,,/muse/elements/blink
2021-11-25 13:47:18.858,1.099329207526577,0.7328572871895771,0.4888389016846688,0.9601901533924112,0.7395791073357721,0.3354155116602286,0.2424756460048028,0.6102610971049035,0.9297220639827862,0.3331563402964435,0.5618631296922141,0.92413357438164,0.2617958975765955,-0.1388028429060204,-0.09035702372759387,0.5333700241815548,-0.2979186600874285,-0.4386025069372647,-0.4782841786524641,-0.06505013524377265,805.4578754578755,813.1135531135532,803.8461538461539,813.1135531135532,668.4615384615385,-0.071716,0.010559,1.007385,4.433746,-5.772095,-1.181335,1,1,1,1,1,100.000000
2021-11-25 13:47:19.857,1.120661499366747,0.7321261251616554,0.7061841365702991,1.303386285124691,0.7678689423902824,0.2424147855383572,0.2172695968378158,0.9684827421533269,1.056208259300553,0.2835932759832344,0.5372466746370949,1.114898375478125,0.2936970324650133,-0.1267878048490538,-0.08292151937890783,0.4494442170243724,-0.1619853831040773,-0.4733987214738346,-0.468448319892626,-0.06820487434151941,810.6959706959707,814.7252747252747,805.0549450549451,809.0842490842491,818.7545787545788,-0.055725,0.029968,1.027100,3.887939,-8.366547,-3.633728,1,1,1,1,1,100.000000
2021-11-25 13:47:20.858,0.7871609800600076,0.690671844688452,0.7147842947753744,0.9885022317210685,0.3104520253094874,0.2169121402304373,0.1407723939231748,0.6885138193449173,0.8313529889362959,0.3964395791174046,0.3187947407794111,0.9057788550534924,0.2358819844190884,0.04110399050442886,0.08324473411934158,0.4247193511944145,-0.2465264375795688,-0.3019484968183367,-0.5804627419998385,-0.2659764932533906,815.1282051282052,809.0842490842491,809.4871794871796,822.7838827838829,702.7106227106227,-0.073792,0.026733,0.994995,4.560852,-2.534637,0.800018,1,1,1,1,1,100.000000
2021-11-25 13:47:21.857,1.311634975644422,0.4695970068290454,0.4048125954802536,1.30322944088423,0.9604509601749709,0.08608893175064297,0.1459922773306877,1.00461659283764,1.019223175322505,0.4106388322272634,0.2337142992686753,0.9803662521386263,0.2872331600468143,-0.02358588561675462,0.01024881651405089,0.5869494273295168,-0.2792846670575368,-0.4360724685247306,-0.6308571773041075,-0.06496739884317125,824.3956043956044,811.0989010989011,804.6520146520147,822.3809523809524,772.4175824175825,-0.066223,0.010437,1.014404,5.988922,-5.734711,-1.622467,1,1,1,1,1,100.000000
2021-11-25 13:47:22.191,,,,,,,,,,,,,,,,,,,,,,,,,,,,,,,,,,,,,,/muse/elements/blink
2021-11-25 13:47:22.857,1.299320083494126,0.6973017002473387,0.4570084567337065,1.16182644615798,0.9647139739636729,0.2686693574275845,0.2901383352921842,1.018872031919641,1.138860150059131,0.599514733513674,0.1825797696462091,1.183692475456473,0.2984226723606382,0.07671736603190402,-0.02734240107083992,0.5187228310428549,-0.2285426240006204,-0.3800047941194439,-0.4271629931831514,-0.09536966042872815,818.7545787545788,812.3076923076924,802.6373626373627,807.4725274725275,846.5567765567765,-0.071899,0.004150,1.007324,4.089813,-7.626343,-1.839294,1,1,1,1,1,100.000000
2021-11-25 13:47:23.858,0.9594680583908819,0.09061741460205895,0.2719487255951096,1.109408183442173,0.7603007987148337,0.03177009676485634,-0.05637533482244171,0.7589036697402254,1.139169331918029,0.3068917106260853,0.1930100303778425,1.189590646064893,0.1891978499415682,0.08663727908533805,-0.1939356819676815,0.3336777051934846,-0.2030359459898201,-0.538226574507537,-0.4037206164749013,-0.2814569338440042,797.3992673992674,808.2783882783883,801.8315018315019,808.2783882783883,763.1501831501831,-0.064270,0.000061,1.009827,2.048645,-8.067474,4.037476,1,1,1,1,1,100.000000
2021-11-25 13:47:24.857,0.7737213123732353,0.8978468329391533,0.8807907019600855,1.098821489948527,0.5622059555161186,0.4673654827931991,0.2848463407550694,0.6695886642450652,0.8082432119977421,0.6798376483497063,0.3959598963268862,1.069502394007981,0.1460220241924522,0.05315612112049085,-0.05173510648984029,0.3171289850882952,-0.2020128367595359,-0.6914843793030154,-0.5379678543034191,-0.2594006703477669,813.5164835164835,813.1135531135532,809.4871794871796,816.3369963369963,697.8754578754579,-0.087036,0.017700,1.019775,5.480499,-0.934601,-2.482300,1,1,1,1,1,100.000000
2021-11-25 13:47:25.861,0.7633099734778235,0.84333575139462,0.890862655180932,1.208450162293024,0.8662096604458559,0.3650234161075656,0.2563759048300693,1.049384251532826,0.9774663145083963,0.6618454738032369,0.2520021253103936,1.194334726675051,0.319240317208611,-0.1568051065093733,0.05458552260794626,0.4992539964141695,-0.1298909675832432,-0.6679565028518054,-0.556351162992068,-0.2340880211250302,814.7252747252747,809.0842490842491,813.1135531135532,814.3223443223443,782.4908424908425,-0.082947,0.007446,1.002380,4.680481,-4.912262,-1.211243,1,1,1,1,1,100.000000
2021-11-25 13:47:26.857,0.4206710186846285,0.08326577422757933,-0.03626214449970615,0.1448310294124052,0.1817925585045793,-0.100814088638422,-0.2017102321196559,0.1908579267854799,0.2514048942185746,-0.2693546429911714,-0.007415492444591755,0.3741617634417936,0.2615957297848187,-0.2229729132917037,-0.2091798731310701,0.3934252878261953,-0.2351380388612419,-0.5541972234033115,-0.5098475006145186,-0.1968857156313218,815.5311355311355,799.8168498168499,805.4578754578755,806.2637362637363,741.3919413919414,-0.078796,0.010315,1.010620,4.074860,-6.026306,-1.876678,1,1,1,1,1,100.000000
2021-11-25 13:47:27.858,0.295801484048933,0.1223536782245516,-0.3008692204476665,0.1849377864026371,0.060721112640575,0.004080264195555366,-0.3197475464184533,0.2457922819145225,0.3959124548275619,-0.07395061203082141,0.2203640608446371,0.3464845090031061,0.184589134279861,-0.30937821131359,-0.1951666558044812,0.4482916256375208,-0.1557620005440159,-0.4689624196459347,-0.423509755680551,-0.1206103756103817,817.5457875457876,804.6520146520147,807.8754578754579,813.5164835164835,785.7142857142858,-0.066589,0.004639,1.005737,5.547791,-5.936584,-1.600037,1,1,1,1,1,100.000000
2021-11-25 13:47:28.857,0.5189812360129908,0.01451328763239747,-0.1860623980949309,0.2740803166127448,0.09672956214010456,-0.09517136151122514,-0.05353513235155324,0.3813979813103046,0.567022549369177,0.1490825010743079,0.1689786949268429,0.5316529441168356,0.1915640052639506,-0.23417998288071,-0.2261176449995833,0.4009901412206651,-0.2870110805929282,-0.3250512660541842,-0.5253633489877315,-0.06661652550416544,808.2783882783883,805.4578754578755,813.1135531135532,798.2051282051282,709.1575091575091,-0.082092,0.003967,1.002441,4.381409,-5.286102,-2.003784,1,1,1,1,1,100.000000
2021-11-25 13:47:29.857,0.8298046833149004,0.2313105502113662,0.0772460214131275,0.03884643537482088,0.363721768484608,0.07202459209008363,-0.04606675554696124,0.4076893891950984,0.5902423813335304,0.2371088013990327,0.2049054507893104,0.7285346732429201,0.4240888614515381,0.02903972359857752,-0.1241872933312604,0.4965567592807825,-0.295869326664059,-0.3866371045941611,-0.6058398086317779,-0.07222023919028732,790.5494505494506,808.2783882783883,809.8901098901099,797.8021978021978,730.5128205128206,-0.082825,0.011841,1.005798,5.099182,-4.276733,-2.863617,1,1,1,1,1,100.000000
2021-11-25 13:47:30.857,1.097503817734028,0.4475145017422067,0.3290655612221343,0.2659941565721611,0.7236968139337348,0.2354690675434543,0.1917206073799626,0.6279242068492651,0.5511635360635847,0.1292874741493661,0.3303681270082671,0.74516003730459,0.3781519768875827,-0.03942868843444892,-0.1228889233215464,0.4716002631888704,-0.1361920170543283,-0.6126424601175003,-0.5740168091420584,-0.0539996384406124,807.0695970695971,801.8315018315019,814.3223443223443,815.934065934066,833.2600732600733,-0.099792,0.008850,1.005859,4.800110,-5.226288,-3.648682,1,1,1,1,1,100.000000
2021-11-25 13:47:31.867,0.3652411848280672,0.1460269960623325,-0.01177127076755616,0.3358721816900602,0.3345855362338445,0.05109113264292475,-0.2257664919028398,0.457706382625674,0.2631027678672495,0.003604628910089045,-0.06347894320533258,0.6569245157318059,0.2654863818196591,-0.1344913221783176,-0.116479442417186,0.5381813180974729,-0.09363449417381096,-0.7214134155458879,-0.4424470440888194,-0.1479808464102466,826.8131868131868,811.0989010989011,817.5457875457876,836.4835164835165,923.1135531135532,-0.071289,0.014221,1.010986,4.755249,-5.674896,-1.562653,1,1,1,1,1,100.000000
2021-11-25 13:47:32.211,,,,,,,,,,,,,,,,,,,,,,,,,,,,,,,,,,,,,,/muse/elements/blink
2021-11-25 13:47:32.860,1.448335422008133,0.3010710913928181,0.3453611329616544,1.387398918122925,0.8704422879528738,-0.08264725999096366,-0.1941367393859703,0.8579110500366628,1.037345889503821,0.01914490795737046,0.3279141050216592,1.055508627270188,0.3317700905403547,-0.04413319679414125,0.0571347157706107,0.456100218418712,-0.09378933776578348,-0.4611718733658829,-0.4477390783775665,-0.0818116454837346,812.7106227106227,804.2490842490843,803.8461538461539,814.3223443223443,736.5567765567765,-0.076904,0.007263,1.011353,4.037476,-4.538422,-2.347717,1,1,1,1,1,100.000000
2021-11-25 13:47:33.857,1.396566566122309,0.5587918235242479,0.3792400462993153,1.253496013353388,0.8460657246151,0.067440361091861,-0.2378720229349474,0.7214387553862627,1.037345889503821,-0.05570736630343611,0.3552880780258825,1.055508627270188,0.3529314008074166,-0.03081294179456394,0.1624632992044314,0.2871643150988581,-0.06540827958325116,-0.4724211152944974,-0.5039089581310586,-0.1755866289235973,805.8608058608058,807.8754578754579,804.6520146520147,808.6813186813187,773.6263736263736,-0.103333,0.011536,1.010010,4.927216,-3.813171,-3.596344,1,1,1,1,1,100.000000
2021-11-25 13:47:34.869,0.4378217575141233,0.3118922543904912,0.03334944649970143,0.1520293546442131,0.3813384876679848,-0.1620646725308999,-0.3801411389117396,0.146200277742298,0.2921226111001804,0.02647194813708202,-0.1075321426791409,0.4291139336772568,0.07047473228036087,-0.06290465983471817,0.002756701267144892,0.1887681124677947,-0.3133701235872522,-0.6758367046580246,-0.5396807470856254,-0.1634779062960978,803.4432234432235,791.7582417582418,809.8901098901099,821.5750915750916,773.2234432234433,-0.088684,0.008789,1.006653,4.635620,-5.383301,-2.048645,1,1,1,1,1,100.000000
2021-11-25 13:47:35.260,,,,,,,,,,,,,,,,,,,,,,,,,,,,,,,,,,,,,,/muse/elements/blink
2021-11-25 13:47:35.858,0.6430364764217867,0.8380993793611615,0.4751346301492944,0.4241676863543591,0.5463123668924199,0.1552026012517908,0.1002423155309817,0.2589941514422435,0.2716202264880565,0.01201213631427432,0.1548593395282762,0.4443058651263592,-0.1702276823636586,-0.05768840715929248,-0.01328652816009476,0.2775813229964347,-0.1905859658203121,-0.5849827996109259,-0.688978087121189,-0.08575419333801947,804.2490842490843,807.0695970695971,805.8608058608058,806.6666666666667,723.2600732600732,-0.085999,0.016663,1.007263,4.994507,-5.136566,-1.585083,1,1,1,1,1,100.000000
2021-11-25 13:47:36.857,0.6925740471892131,0.6688455913846889,0.3160263459038706,0.6902637706735649,0.3361603823220765,-0.06976420432881834,0.08804262313334289,0.2550561531807723,0.08731614799375005,-0.2205862988592278,0.07032124091692796,0.2630304794638444,0.2219631870823233,-0.1841942805307382,-0.1190842718981148,0.3335339358068743,-0.4182329833016054,-0.6844895145676579,-0.637858490656693,-0.04520349887801784,801.025641025641,810.2930402930403,808.6813186813187,813.5164835164835,794.1758241758242,-0.097290,0.023315,1.006470,5.816956,-3.095398,-0.306549,1,1,1,1,1,100.000000
2021-11-25 13:47:37.857,0.9488367029188073,0.8923640155039078,0.4667326988966524,0.5581459960427309,0.8320723034893703,0.579523346198206,0.2874725507746279,0.2675193183440081,1.018098219914264,0.1002255625768679,0.4607491779169864,0.3111859566999921,0.6280311472803476,-0.26536495513557,-0.200117350807059,0.2967082554610742,0.1070803913472023,-0.7409969596688394,-0.5743347721649238,-0.1157942060712162,815.5311355311355,813.1135531135532,808.6813186813187,818.3516483516484,781.2820512820513,-0.053955,0.057922,1.018188,4.127197,-2.235565,7.267456,1,1,1,1,1,100.000000
2021-11-25 13:47:38.039,,,,,,,,,,,,,,,,,,,,,,,,,,,,,,,,,,,,,,/muse/elements/blink
2021-11-25 13:47:38.862,1.314349825118968,1.145062024968946,0.867580116454582,0.6701417602274264,1.114020555263262,0.7518102564503373,0.450086340660964,0.2664389733557506,0.9965045009348458,0.2423858691568292,0.4542669274051904,-0.0102039791354506,0.9718141950285759,-0.2229302167939941,-0.1780405667818981,0.2855699950852736,0.4708516596324172,-0.6274702122158425,-0.4646181845791125,-0.1465637313497044,819.5604395604396,810.6959706959707,807.8754578754579,819.96336996337,723.6630036630037,-0.078857,0.027283,1.015625,5.271149,-6.287994,3.065491,1,1,1,1,1,100.000000
2021-11-25 13:47:39.449,,,,,,,,,,,,,,,,,,,,,,,,,,,,,,,,,,,,,,/muse/elements/blink
2021-11-25 13:47:39.857,1.067372951873914,0.6418705510016951,0.7450741061514644,0.5262991071407186,0.8330409181502054,0.2636736262637235,0.2056372461937692,-0.05793249889372519,0.7824908621128733,0.1765639850211804,-0.06755253190498219,0.1294726087595461,0.6154718200478084,-0.169445005639561,-0.224763822704828,0.2852190832981035,0.002913350455362645,-0.4367546657003952,-0.4631858106782539,-0.2236996927020735,819.96336996337,817.948717948718,814.7252747252747,807.8754578754579,861.8681318681319,-0.061096,0.036560,1.001038,6.452484,-5.794525,0.082245,1,1,1,1,1,100.000000
2021-11-25 13:47:40.702,,,,,,,,,,,,,,,,,,,,,,,,,,,,,,,,,,,,,,/muse/elements/blink
2021-11-25 13:47:40.702,,,,,,,,,,,,,,,,,,,,,,,,,,,,,,,,,,,,,,/muse/elements/jaw_clench
2021-11-25 13:47:40.861,,,,,,,,,,,,,,,,,,,,,,,,,,,,,,,,,,,,,,/muse/elements/jaw_clench
2021-11-25 13:47:40.863,1.067372951873914,0.4457601240215816,0.8967378142576062,0.5262991071407186,0.8330409181502054,0.2590618660231042,0.3059050532821787,-0.05793249889372519,0.7824908621128733,0.1619851946488012,0.2037013419411544,0.1294726087595461,0.6154718200478084,-0.03460855699774783,0.1278115272331457,0.2852190832981035,0.002913350455362645,-0.228524578582331,-0.0626640340222699,-0.2236996927020735,838.901098901099,808.2783882783883,817.948717948718,827.2161172161173,734.5421245421246,-0.069031,0.021484,1.006165,4.478607,-8.845062,0.044861,1,2,1,1,2,100.000000
2021-11-25 13:47:41.257,,,,,,,,,,,,,,,,,,,,,,,,,,,,,,,,,,,,,,/muse/elements/blink
2021-11-25 13:47:41.607,,,,,,,,,,,,,,,,,,,,,,,,,,,,,,,,,,,,,,/muse/elements/jaw_clench
2021-11-25 13:47:41.857,1.067372951873914,0.7827660340774607,1.152235351614784,0.5262991071407186,0.8330409181502054,0.4842777829226482,0.2729715361292809,-0.05793249889372519,0.7824908621128733,0.4494920689244357,0.4072995952006412,0.1294726087595461,0.6154718200478084,0.1778929426547623,0.3774152702125737,0.2852190832981035,0.002913350455362645,0.1131042182811435,0.1949059247205095,-0.2236996927020735,875.9706959706959,801.4285714285714,807.4725274725275,868.7179487179487,808.6813186813187,-0.096313,0.041016,1.013672,4.859924,-4.874878,-3.327179,1,2,1,1,2,100.000000
2021-11-25 13:47:42.857,1.067372951873914,1.000752936847696,1.153360123656296,0.5262991071407186,0.8330409181502054,0.6720111498344458,0.4918051871555402,-0.05793249889372519,0.7824908621128733,0.8260787805151283,0.4649078021702338,0.1294726087595461,0.6154718200478084,0.8778972754538388,0.5720823202534838,0.2852190832981035,0.002913350455362645,0.8368720998494573,0.5066524700309702,-0.2236996927020735,826.007326007326,800.6227106227107,802.2344322344322,803.040293040293,804.6520146520147,-0.051758,0.060181,1.006348,7.469330,-6.646881,-12.688141,1,2,1,1,2,100.000000
2021-11-25 13:47:43.858,1.106917617970424,1.046841242043454,0.7435884675203585,0.8447488763311126,0.72540806171339,0.6089601142357155,0.4509117251194005,0.4506634401694494,0.5399464610329222,0.7489849483492046,0.237054404000319,0.4945872789415012,0.6692812254248381,0.5724958381230132,0.4029323225612972,1.077338187916569,0.09368363035731517,0.3240285030616564,0.2737512225911135,0.700243576836682,803.8461538461539,794.1758241758242,809.8901098901099,801.8315018315019,726.0805860805862,-0.053528,0.050110,1.005432,3.925323,-5.443115,0.209351,1,1,1,1,1,100.000000
2021-11-25 13:47:44.858,0.9461581903516145,0.7124285875708857,0.2764076563545232,0.5714202216008462,0.5256245809710728,0.08305229571528346,0.1181181455984053,0.1568694338343259,0.6539682786139754,0.3803747497807427,-0.1025978539510091,0.6062832725833324,0.5269789847720632,0.02129309207135353,-0.01159949038301937,0.3792244001186632,-0.01268869585316273,-0.468876534530851,-0.5042577893286044,-0.2547050852972483,820.7692307692308,808.2783882783883,801.4285714285714,812.3076923076924,865.4945054945056,-0.068115,0.044434,1.011169,4.635620,-6.003876,-1.368256,1,1,1,1,1,100.000000
2021-11-25 13:47:45.863,0.5462431800356548,0.3846284242157328,0.1298922151621447,0.02714586141170059,0.214092356925796,-0.1077752559430464,-0.1629810246869487,0.04606332685164767,0.6858993506394233,0.1413508125892171,-0.1437326023382627,0.4144491772202659,0.3319731178017531,-0.1059800754285595,-0.04308851899312829,0.2786424006368702,-0.1032540778035337,-0.5408093417188441,-0.4962703026131126,-0.1931320559113382,823.992673992674,810.6959706959707,811.0989010989011,811.5018315018315,820.3663003663004,-0.054688,0.049500,1.011414,4.216919,-6.400146,-2.676697,1,1,1,1,1,100.000000
2021-11-25 13:47:46.857,0.2955920752800157,0.1123712697258104,-0.2526907971661508,0.1856443008821931,0.006500896102182387,-0.1852796838657774,-0.5113370282985576,-0.07882148665218268,0.603039903864067,0.01663179009592581,-0.02128358098066275,0.3655517850479978,0.1522090928617856,-0.2376539462573916,-0.1511233074632451,0.272097886698756,-0.01320758379807403,-0.5867667133620861,-0.5623416022914065,-0.1416210722677886,819.1575091575091,808.6813186813187,813.1135531135532,811.5018315018315,720.4395604395604,-0.058044,0.045959,1.010254,4.583282,-4.994507,-2.355194,1,1,1,1,1,100.000000
2021-11-25 13:47:47.857,0.5477499402024757,-0.03174546753865155,-0.2335203563827292,0.251531908696763,0.07192567306397732,-0.3093979098200218,-0.3799700432279843,-0.1421644622446691,0.5955075538472554,0.2264914632665357,0.04279491227424285,0.6320225623598223,0.2024108534819213,-0.1305597717012275,-0.1593839653202016,0.3386564832858881,0.06406397047357851,-0.415596758479694,-0.5937010888192946,-0.1104296047584871,823.1868131868132,809.8901098901099,805.0549450549451,812.3076923076924,792.5641025641025,-0.056641,0.040344,1.013977,4.972076,-4.747772,-1.809387,1,1,1,1,1,100.000000
2021-11-25 13:47:48.858,0.3378301074718248,-0.3158390859587691,-0.1314081474538515,0.3095859239404481,-0.2211418845739476,-0.4867629924675693,-0.2253381906798047,0.09323992628251705,0.5007172367238364,0.1351197513592182,0.1334343375372408,0.622895139211791,0.3474030342564875,0.04671363329443658,-0.06540414607375443,0.2607095026706782,-0.06850663604931055,-0.5433051663745319,-0.4973933609715692,-0.1114721443106786,799.4139194139194,819.96336996337,797.3992673992674,861.4652014652015,840.1098901098901,-0.060669,0.053284,1.004211,4.994507,-4.942169,-2.257996,1,1,1,1,1,100.000000
2021-11-25 13:47:49.091,,,,,,,,,,,,,,,,,,,,,,,,,,,,,,,,,,,,,,/muse/elements/jaw_clench
2021-11-25 13:47:49.858,1.046699753743221,-0.0937700626289672,0.2024914520428509,0.2792418291612006,0.2674569392451019,-0.1636090998110828,-0.02688130751080649,0.25402588403191,0.5432586641777013,0.0335860026052988,0.2222297256486772,-0.07047812370628825,1.288457416956854,0.2563969367821843,0.6722436230921,0.08030838912717096,0.9126093819087643,-0.1256487516667596,0.3238767014617207,-0.03741283146371408,809.4871794871796,815.5311355311355,802.6373626373627,805.8608058608058,697.8754578754579,-0.061890,0.038208,1.003723,4.351501,-4.620667,-2.213135,1,1,1,1,1,100.000000
2021-11-25 13:47:50.864,0.8795098263159919,-0.2598084876690107,0.01275768922613381,0.6830503115423997,0.2716708433526046,-0.2612905128324203,-0.1296515943627368,0.1131270477469208,0.6058133100959153,0.003108896329211001,0.1452387666240821,0.6819431098450911,0.8687325400975022,-0.04270954667838846,0.2988705794276685,0.08924195696308299,0.6248931033715008,-0.2856171984777732,0.01274171551906405,-0.219075441617896,823.1868131868132,805.8608058608058,800.2197802197802,815.934065934066,921.9047619047619,-0.063660,0.034485,1.007385,4.396362,-5.330963,-1.682281,1,1,1,1,1,100.000000
2021-11-25 13:47:51.857,0.4994188826666651,-0.3271480461235213,-0.5066675673309209,0.5516289305658586,-0.0387753559576357,-0.2436300581731127,-0.0871885642371503,0.04026538020580747,0.5466882663916927,0.03327684788724242,0.0123864142027062,0.7168197316385287,0.08896560379790544,-0.3640228027736008,-0.1268999262767731,0.2936978235996114,-0.241690548375079,-0.6022114587346721,-0.5999129722474007,-0.02416126088673371,830.8424908424909,805.0549450549451,809.4871794871796,822.3809523809524,735.7509157509157,-0.065918,0.041321,1.009705,4.994507,-4.777679,-2.048645,1,1,1,1,1,100.000000
2021-11-25 13:47:52.586,,,,,,,,,,,,,,,,,,,,,,,,,,,,,,,,,,,,,,/muse/elements/jaw_clench
2021-11-25 13:47:52.865,0.2749975288209822,-0.05127493062934198,0.5547278959539035,0.6803988917507527,0.05566242053602524,-0.2747933249971738,-0.1447576903166578,-0.1572564749782889,0.1310169890642708,0.01078673985347594,0.05535109178074093,0.5454369248900884,0.2856058893477824,0.3043364514267067,0.1351139223791802,0.4421643561156809,-0.02037911974102202,0.03227961486361602,0.6381106741314695,-0.002852663866980007,813.919413919414,809.4871794871796,799.8168498168499,814.3223443223443,782.0879120879121,-0.062134,0.041016,1.007324,5.121613,-5.869293,-1.943970,1,1,1,1,1,100.000000
2021-11-25 13:47:53.857,0.3936138149754016,0.07857307770659652,0.8014182441123915,0.276781511404321,0.2653984222026012,-0.04833864435116415,-0.2143940400869297,0.2083395140338796,0.3077620939263483,0.2563029468197456,0.02468769930626681,0.1250796117228906,0.2964625302233501,0.4243187682514636,0.151052556587089,0.2389476830242561,0.2164667895736776,0.1925788479144011,0.7863184953422375,-0.1530365964343622,805.4578754578755,808.2783882783883,804.2490842490843,811.5018315018315,755.0915750915751,-0.054321,0.036499,1.010376,4.800110,-5.069275,-1.577606,1,1,1,1,1,100.000000
2021-11-25 13:47:54.860,0.130276987105851,-0.1083807023360627,-0.09139363271974778,0.2911848928562762,0.1816220037689562,-0.08833110464840094,-0.1510683697466067,0.1041999588350404,0.4995566976841778,0.09574699715230031,-0.004606422329587765,0.4796389262472389,0.2662518701143057,-0.2411622439759225,-0.2613555129029823,0.2889349463003119,-0.009054558594950992,-0.5596535274890959,-0.5911799480470562,-0.1159353466089138,821.5750915750916,811.5018315018315,806.2637362637363,817.1428571428571,842.1245421245421,-0.060242,0.037720,1.011475,5.487976,-4.673004,-1.188812,1,1,1,1,1,100.000000
2021-11-25 13:47:55.857,0.07058216825673937,-0.2103420117177985,-0.1209914121228974,0.5256751929291597,0.3921042106837789,-0.1612436874742517,-0.0187749781884079,0.279237554799495,0.6438122497673882,-0.04479473424218534,0.1197942088935161,0.577165471901074,0.3015129382432283,-0.2433564226349913,-0.2427075518187319,0.3411889260656291,-0.08138040859925781,-0.6938495268246705,-0.6837420714492494,-0.06098216588029368,818.3516483516484,806.6666666666667,799.8168498168499,803.8461538461539,758.3150183150184,-0.063904,0.040527,1.009338,4.867401,-5.001984,-1.338348,1,1,1,1,1,100.000000
2021-11-25 13:47:56.219,,,,,,,,,,,,,,,,,,,,,,,,,,,,,,,,,,,,,,/muse/elements/jaw_clench
2021-11-25 13:47:56.308,,,,,,,,,,,,,,,,,,,,,,,,,,,,,,,,,,,,,,/muse/elements/blink
2021-11-25 13:47:56.872,0.2652341740141853,0.1914477791727607,0.6463238125858857,0.6170739978997767,0.3415352072338719,0.1388655176032911,0.1091618557147101,0.1916995593811427,0.5637285554402248,0.4626091982622912,0.1193988003944152,0.5187366637742146,0.2691071017988246,1.007401090433837,0.9176813991763789,0.3213444838073528,-0.06084659491149822,0.3502954209606881,0.5612476155348552,-0.03993163583626714,848.5714285714286,801.8315018315019,809.8901098901099,810.2930402930403,741.3919413919414,-0.056030,0.043945,1.008911,5.031891,-4.942169,-1.472931,1,1,1,1,1,100.000000
2021-11-25 13:47:57.531,,,,,,,,,,,,,,,,,,,,,,,,,,,,,,,,,,,,,,/muse/elements/jaw_clench
2021-11-25 13:47:57.857,0.5491769308270344,0.3876740660279303,0.7112870663925041,0.9592189607783748,0.202360797814201,0.2897478263757519,0.1244808215082316,0.5150440599493061,0.6679963188975386,0.5248361948143621,0.07224579220523075,0.2570274759903725,1.110166942089269,1.277800523465342,1.032609287084335,1.241672685653314,1.06468183143323,0.7865991335745961,0.7919571178690342,1.072320261190141,843.7362637362637,798.2051282051282,812.7106227106227,842.5274725274726,837.2893772893773,-0.057556,0.039856,1.005920,4.957123,-5.615082,-1.368256,1,1,1,1,1,100.000000
2021-11-25 13:47:58.861,0.7313108479173324,0.1501318020655502,0.1433335031584357,1.224653669054442,0.2999943745025595,0.08134322469308612,-0.1363716708477235,0.2203795415197594,0.714056034633204,0.2687093000457051,0.06837673357115746,0.6360505847925376,0.9390120017972601,0.6495242040461375,0.3843269608673157,1.113404186868333,0.7643249619290129,0.4468626243450459,0.3649774618138301,0.8986143094547981,825.2014652014652,807.8754578754579,806.2637362637363,821.1721611721612,701.0989010989011,-0.066345,0.034363,0.999329,5.405731,-5.248718,-2.579498,1,1,1,1,1,100.000000
2021-11-25 13:47:59.857,0.7710969845124366,-0.0206972108057489,-0.3410059661735461,1.177303655168448,0.3477699608051438,-0.1348964726260748,-0.314633623480319,-0.000715906672414358,0.4986502344036351,0.2210285757708768,-0.1186900119740688,0.6100410653106297,0.5020794138832915,-0.07253073221847829,-0.01287811719885433,0.5729707269881923,0.2558430904824476,-0.2232718754474255,-0.436374650771985,0.1955997679325465,821.1721611721612,817.1428571428571,810.2930402930403,819.5604395604396,940.8424908424909,-0.055359,0.034302,1.011414,4.815063,-5.054321,-2.310333,1,1,1,1,1,100.000000
2021-11-25 13:48:00.857,0.4261622642763154,-0.02441917661363403,-0.4390779174710162,0.2707299257097453,0.1325887470511886,-0.06602360326251004,-0.4447287726589408,0.2731977122495253,0.4404376117423844,0.1953757917683925,-0.2637696259055199,0.4658254765703298,0.308332743189243,-0.09174383876388821,-0.171666671297628,0.1771031030153392,0.1677285941582272,-0.4379592213825029,-0.5910265935860894,-0.03019655266161196,834.8717948717949,814.7252747252747,805.0549450549451,830.4395604395604,985.1648351648352,-0.054932,0.046509,1.009766,5.016937,-5.218811,-1.547699,1,1,1,1,1,100.000000
2021-11-25 13:48:01.862,0.2530278600922681,-0.2067230348232905,-0.2464756341091999,-0.02737178923462253,0.2430612088759837,-0.2615408040682541,-0.2887080473343702,-0.3084491337641629,0.3662529817360429,-0.05160297303249823,-0.04948494091270077,0.123910471421685,0.2840552165657908,-0.169172609577315,-0.3042430844817933,0.150450765446358,-0.004189554505573918,-0.4736776621353544,-0.6328154458547606,-0.06421876706167508,815.5311355311355,808.6813186813187,813.1135531135532,813.5164835164835,780.4761904761905,-0.058044,0.044556,1.008362,4.418793,-5.136566,-2.355194,1,1,1,1,1,100.000000
2021-11-25 13:48:02.606,,,,,,,,,,,,,,,,,,,,,,,,,,,,,,,,,,,,,,/muse/elements/blink
2021-11-25 13:48:02.606,,,,,,,,,,,,,,,,,,,,,,,,,,,,,,,,,,,,,,/muse/elements/jaw_clench
2021-11-25 13:48:02.864,0.4909421896840395,-0.4873378189457293,-0.1609424635603937,0.1318394690207939,0.0950321898914029,-0.3217429846296617,-0.1477386502375168,-0.1531019313000215,0.2950041588479854,0.1772130037707599,0.06659622607388418,-0.07022805759311207,0.3221483382610945,0.1124743703824579,0.5505505888537467,0.3167631305016335,-0.1352878039846353,-0.2003997285753514,-0.05834176048665658,-0.09933207752298433,820.7692307692308,807.4725274725275,806.2637362637363,815.934065934066,781.2820512820513,-0.065857,0.045044,1.010864,4.792633,-5.570221,-1.592560,1,1,1,1,1,100.000000
2021-11-25 13:48:03.857,0.1807450392866866,-0.117402319103213,-0.1555360506687833,0.5487895311043722,-0.1672245558265208,-0.1094682565427087,-0.179167940244573,0.5049123404165788,0.1998807896301141,0.3431608499668148,-0.008162775037535774,0.4946783944239024,0.3400884463056889,0.5052695319344837,0.9906321362481578,0.3581223461061683,0.04487499443231832,0.1780664704372669,0.3531312868800628,-0.09512246217236223,833.6630036630037,813.5164835164835,801.4285714285714,822.7838827838829,829.2307692307693,-0.062317,0.045166,1.008728,5.256195,-5.630035,-1.951447,1,1,1,1,1,100.000000
2021-11-25 13:48:04.863,0.06042662024047641,0.01832879443301048,-0.2645793812543824,0.3133063740978901,-0.08509273985664526,-0.2452254140779996,-0.3500578627994624,0.1863607917511923,0.4809147002279896,0.06827654850766157,0.06232434050061364,0.5311755943359752,0.3620665018759722,-0.1999512014060881,-0.2274608055339913,0.3497745745464232,-0.07853519781639626,-0.4227428156533421,-0.5497165648027603,-0.1112830651232934,801.8315018315019,802.2344322344322,803.040293040293,800.6227106227107,864.6886446886447,-0.066101,0.043091,1.011963,4.815063,-5.061798,-1.749573,1,1,1,1,1,100.000000
2021-11-25 13:48:05.826,,,,,,,,,,,,,,,,,,,,,,,,,,,,,,,,,,,,,,/muse/elements/blink
2021-11-25 13:48:05.856,0.1711895679334656,0.07730870705172184,-0.09248468265925894,0.1332195743713639,0.1901289590038783,0.05196301730013893,0.1401859402926145,0.1673572423488941,0.5782448574404685,0.3145538629443795,0.2925121787815547,0.8093324887653099,0.4326129459612791,-0.09955140216789987,-0.1531325807769504,0.4068233040880904,0.006688526823819451,-0.5503515828135014,-0.4745336627238558,-0.1003115234531184,835.2747252747253,842.5274725274726,785.3113553113553,809.0842490842491,720.4395604395604,-0.026306,0.082336,1.024109,18.662109,-11.604004,-58.386383,1,1,1,1,1,100.000000
2021-11-25 13:48:06.857,0.4573189233216288,0.3139957891445661,1.134151196513653,0.4144102318200306,0.4298912200887847,0.141425960528509,0.5852661886342635,0.4230174166296079,0.3948828562653374,0.2817450731184666,0.3650964101791708,0.8093324887653099,0.3694133046108669,-0.1302589269277825,-0.07689108364108514,0.4392270407367901,0.1875540788753386,-0.5134936314949737,-0.2709302089445277,-0.04433028063099894,824.3956043956044,807.0695970695971,804.6520146520147,820.3663003663004,972.2710622710623,-0.051147,0.052002,1.010803,5.166473,-4.530945,-2.048645,1,1,1,1,1,100.000000
2021-11-25 13:48:07.282,,,,,,,,,,,,,,,,,,,,,,,,,,,,,,,,,,,,,,/muse/elements/blink
2021-11-25 13:48:07.869,0.8790671182685172,0.4119764207961542,0.8121438952852925,0.8615682986612435,0.2292445177936882,0.0930467802254118,0.3991161188460081,0.4911255755112671,0.156525653626563,0.04009481821253906,0.3512810404588439,0.8198465873976593,0.1336159652211711,-0.08650429203469499,-0.1195129850703617,0.4945114365420233,-0.226115247132188,-0.6706498531563244,-0.4396201409104831,-0.1576988999994851,803.8461538461539,800.6227106227107,805.0549450549451,822.3809523809524,740.1831501831502,-0.053833,0.049927,1.009033,4.508514,-6.101074,-2.198181,1,1,1,1,1,100.000000
2021-11-25 13:48:08.273,,,,,,,,,,,,,,,,,,,,,,,,,,,,,,,,,,,,,,/muse/elements/blink
2021-11-25 13:48:08.857,0.8790671182685172,0.8379802979239448,0.4830138249003745,0.8615682986612435,0.2292445177936882,0.4578824264947864,0.3946037092042256,0.4911255755112671,0.156525653626563,0.2826169960967574,0.3878715811189098,0.8198465873976593,0.1336159652211711,0.04913076762492827,-0.1467367834947853,0.4945114365420233,-0.226115247132188,-0.4960889977381986,-0.4524158908500538,-0.1576988999994851,809.8901098901099,808.2783882783883,818.3516483516484,827.6190476190476,894.1025641025641,-0.103760,0.054871,1.009888,6.923523,-0.433655,12.837677,1,1,1,1,1,100.000000
2021-11-25 13:48:09.857,1.1512038883074,1.315950582107987,0.8465349032523278,0.8128978184040145,0.7710717967495749,0.7115355146095568,0.4823492152695422,0.6375145460466436,0.9533108313907971,0.5525378449354954,0.4653417204782063,0.6595289813011462,0.8247697809205762,0.02382665254690378,0.07180280621476522,0.9089889379107846,0.3132642147575457,-0.4454135705994107,-0.08829181043132962,0.6855201809563332,850.1831501831502,808.6813186813187,811.0989010989011,843.3333333333334,685.7875457875458,-0.111633,0.043213,1.002869,4.904785,-11.932983,8.299255,1,1,1,1,1,100.000000
2021-11-25 13:48:10.510,,,,,,,,,,,,,,,,,,,,,,,,,,,,,,,,,,,,,,/muse/elements/blink
2021-11-25 13:48:10.857,1.13591293275379,0.8651725695918028,0.7343450385763572,0.9226467068232154,0.940898727713147,0.3512515925552046,0.1611025019560021,0.509835318917784,1.465676463323387,0.5569986741477089,0.4935849930029934,0.7258181681073201,1.260914004784164,0.1251721648337468,0.3207151412477337,1.062306709018247,0.4519497791598507,-0.3216962757013796,0.1107181376632209,0.8331263469555747,819.1575091575091,803.8461538461539,823.5897435897436,814.7252747252747,867.9120879120879,-0.019592,0.046692,1.025574,6.392670,-5.630035,1.712189,1,1,1,1,1,100.000000
2021-11-25 13:48:11.860,0.3478995003445981,0.4744207828338282,1.08206325637252,0.2526610096975769,0.07580798206814693,0.2195507827474956,0.4895668414709541,0.173113636865736,0.04005558196210908,0.2765680155690903,0.3474233373688583,0.3450807409162033,0.0006085009100175159,-0.1032802519802175,0.2043960075169461,0.341044708908422,-0.1262815562404852,-0.3156267433890563,-0.1493366070457892,0.1166914768032399,817.1428571428571,812.3076923076924,807.0695970695971,815.934065934066,765.5677655677656,-0.097168,0.032349,1.001953,9.861908,-6.347809,-1.428070,1,1,1,1,1,100.000000
2021-11-25 13:48:12.446,,,,,,,,,,,,,,,,,,,,,,,,,,,,,,,,,,,,,,/muse/elements/blink
2021-11-25 13:48:12.857,0.3854034887530502,1.122561094466115,1.348327853324674,0.2643401043076981,0.01827443807331137,0.5035980520614176,0.6818257646188883,0.250305197480059,0.2766676254129033,0.6441536871032512,0.7482303081943285,0.4871112362497351,0.1560149445611004,0.3036606551196955,0.1468639650537949,0.3406402643336556,-0.1103392069493613,0.003387818425537972,-0.110007413834019,0.1252491574395045,813.1135531135532,817.5457875457876,817.5457875457876,817.5457875457876,973.8827838827839,-0.084229,0.057068,1.010925,5.854340,-4.949646,0.852356,1,1,1,1,1,100.000000
2021-11-25 13:48:13.479,,,,,,,,,,,,,,,,,,,,,,,,,,,,,,,,,,,,,,/muse/elements/blink
2021-11-25 13:48:13.861,0.4281426126263098,1.14724567314608,1.523999444658415,0.2785107018728683,-0.06635968531862771,0.6596206567211284,0.9529907748870938,0.3307693607171258,0.2392647682769453,0.877893131104407,0.962087545678537,0.4569568733039406,0.2946383729393287,0.3179916247379792,0.2601847966830473,0.3401341783801758,-0.09120056662045056,-0.02822422052795174,0.02741710119678093,0.1357144439581047,825.2014652014652,806.6666666666667,806.6666666666667,825.2014652014652,778.0586080586081,-0.074829,0.043030,1.007446,3.237457,-0.844879,-1.914062,1,1,1,1,1,100.000000
2021-11-25 13:48:14.857,0.3352358865870452,0.9056902803671245,1.215254347426503,0.9287531596999657,0.3559859659082343,0.8061894326877096,0.7233099078235186,0.4718710600663408,0.5832740314728568,0.8471242442988561,0.9381909038707593,0.2793026750094898,0.5929701527230413,0.323413906023972,0.2655363451948062,0.8327098096140269,0.03203903363805086,-0.06896501289724757,-0.02607034808655559,0.4512214528812656,809.4871794871796,814.3223443223443,808.6813186813187,807.4725274725275,800.2197802197802,-0.136902,0.059753,1.031799,6.243134,-5.719757,1.996307,1,1,1,1,1,100.000000
2021-11-25 13:48:15.102,,,,,,,,,,,,,,,,,,,,,,,,,,,,,,,,,,,,,,/muse/elements/blink
2021-11-25 13:48:15.859,0.3352358865870452,1.099756511732994,1.332731701889126,0.9287531596999657,0.3559859659082343,0.7643905543470616,0.7416469482170019,0.4718710600663408,0.5832740314728568,0.7833913020830701,0.7903611961351309,0.2793026750094898,0.5929701527230413,0.005874272181274258,0.09973163398164517,0.8327098096140269,0.03203903363805086,-0.2374655014084098,-0.2849137680958419,0.4512214528812656,812.3076923076924,819.96336996337,803.4432234432235,800.6227106227107,714.7985347985348,-0.123047,0.029602,1.005737,3.342133,-8.867493,-3.992615,1,1,1,1,1,100.000000
2021-11-25 13:48:16.857,0.9086875061058686,1.075274126044925,1.537956954736447,0.9287531596999657,0.2242368177406133,0.5865845657955521,0.6057956287583446,0.4718710600663408,0.1287001487105317,0.7204131147791868,0.8036500076852248,0.2793026750094898,0.2159534085220492,-0.04795640202502098,0.01658034954549958,0.8327098096140269,-0.01798640918767843,-0.2768533634337724,-0.3403523903988763,0.4512214528812656,813.1135531135532,806.6666666666667,801.8315018315019,801.4285714285714,772.4175824175825,-0.091248,0.031616,1.007141,4.172058,-5.248718,-2.714081,1,1,1,1,1,100.000000
2021-11-25 13:48:17.856,0.5299255820807092,0.2006715565008796,0.2835595888915414,0.7061175644195732,0.03014380544537246,0.09034566872326734,-0.1233590357687697,0.231554618842421,0.3815122505028915,0.3019439417744677,0.2849940809771236,0.1305112357658559,0.1904636524867437,-0.08205531608888619,-0.01246222099771261,0.3494574601159148,-0.09762998604982073,-0.4297762205799065,-0.4406550304948931,-0.07826606026239305,764.3589743589744,790.5494505494506,827.2161172161173,784.1025641025641,808.6813186813187,-0.077087,0.031677,1.009460,4.957123,-5.144043,-0.119629,1,1,1,1,1,100.000000
2021-11-25 13:48:18.857,1.149157295683133,0.6252602361482126,0.6281154617666428,0.9229842323329572,0.7520936785106481,0.1756797169457164,0.4741448994980905,0.6570203774721021,0.8543887051459976,0.3694275338596101,0.3465903236858111,0.73602125473609,0.2838212449094105,-0.1070585468434702,-0.08265297459251265,0.3398225860399684,0.02401381544204503,-0.590155634990144,-0.4666338081695597,-0.1034770412768026,821.5750915750916,803.8461538461539,804.2490842490843,812.3076923076924,776.8498168498169,-0.057495,-0.003967,0.995911,1.128998,-6.026306,-5.428162,1,1,1,1,1,100.000000
2021-11-25 13:48:19.857,1.317114755067843,0.8111561300403234,0.5413041526467005,1.12354603455568,0.8854608049921986,0.2174132800491972,0.4992716538009098,0.9929388428117629,0.9992121635330585,0.3710890648729655,0.4801146071874124,1.126003099075759,0.322722565188894,0.04031464546903512,0.04144548347334471,0.4066307339593968,-0.05760343156179958,-0.7111207403777318,-0.429144355138344,0.01360098652837874,809.4871794871796,803.040293040293,805.0549450549451,804.6520146520147,802.2344322344322,-0.083435,0.023071,1.013489,3.648682,-7.499237,-0.672913,1,1,1,1,1,100.000000
2021-11-25 13:48:20.857,1.218763673808104,0.3184705822268717,0.2059706022748612,1.072833125110435,0.8228046119916025,-0.004931135113145276,0.1822439301671896,1.006526274212452,0.9946659735335948,0.3925315611941258,0.4262110689457524,1.118026566614795,0.3578112006940969,0.1150193321830352,-0.01560619793572055,0.4785250297800374,-0.3537477609836435,-0.6099214564746985,-0.5084544187181175,0.04240200697786712,807.0695970695971,812.7106227106227,812.7106227106227,801.4285714285714,842.1245421245421,-0.075989,0.070129,1.006470,5.884247,-1.600037,6.938477,1,1,1,1,1,100.000000
2021-11-25 13:48:21.858,1.105212605888155,0.4849201213468793,0.4068834813638673,1.228388974746049,0.6428946809294666,0.1126594208720858,0.07379034461372858,0.8103931152532762,0.9008131508287975,0.3892401994723858,0.3533976943736526,0.8256419244834295,0.4531244855353696,0.1344967050622375,-0.03456019561980654,0.4534300793950717,-0.2156512967675152,-0.5062209334330465,-0.4512780590929177,-0.1208238877007619,812.3076923076924,804.6520146520147,812.7106227106227,821.1721611721612,856.6300366300367,-0.101868,0.064514,0.999207,5.144043,-3.902893,-4.209442,1,1,1,1,1,100.000000
2021-11-25 13:48:22.859,1.206936375467291,0.04527270035513576,0.5656773551169637,1.361408199761978,1.040220463598613,-0.003816904662046088,0.09026045042990043,1.225874544019199,1.224592927718183,0.3043848455968277,0.06381838752861391,1.249716576698666,0.4912941836409701,0.03731391484197585,-0.1053689354438697,0.4683404045352165,-0.08539557898639834,-0.4343718069438424,-0.3374789144807465,-0.1517458075171049,809.8901098901099,803.040293040293,801.025641025641,809.8901098901099,622.9304029304029,-0.081604,0.026917,1.011047,5.286102,-3.028107,-1.839294,1,1,1,1,1,100.000000
2021-11-25 13:48:23.857,1.123664026650169,0.1954479325136158,0.4757148472809956,1.185211232574771,0.9022519002327078,0.06213555573003738,0.05382740560254529,1.091931100226701,1.213494845026621,0.2627603938868267,0.1627778470432261,1.241988381738578,0.4012202650517496,-0.0275261596079343,-0.2070699917818082,0.3672498250032679,-0.2163439224709192,-0.4809006934382441,-0.4878819468507214,-0.1801558887199115,828.4249084249085,812.7106227106227,805.8608058608058,822.7838827838829,911.8315018315019,-0.104980,-0.000427,1.026733,1.951447,-0.358887,1.622467,1,1,1,1,1,100.000000
2021-11-25 13:48:24.861,1.198602310955133,0.5553444534195155,0.4779825340093968,1.338746438365566,0.7668493886326117,0.2413632213837295,0.09768550651074644,0.9787580571076343,0.9024676870114419,0.314210162281799,0.06824031072361052,0.9608653896021678,0.2449900753818863,-0.245988360587744,-0.07449892946085966,0.3173869292426147,-0.1079281284276388,-0.497368185895852,-0.6589809819726937,0.04617001170831806,822.3809523809524,805.0549450549451,803.4432234432235,816.3369963369963,840.5128205128206,-0.071106,0.005066,1.006714,5.510406,-5.428162,0.201874,1,1,1,1,1,100.000000
2021-11-25 13:48:25.863,0.7509107144886652,0.3020211997999623,0.1247175234761199,0.6807176057831723,0.4740514140260466,0.1078476900586064,-0.3073969391171801,0.2650907534820366,0.537257277332984,0.2870128405220042,0.1355169960757295,0.6163023454841827,0.09411117690502577,-0.08134682623000745,-0.09201934015394349,0.3015828889332777,-0.2390316612138731,-0.4512064677863185,-0.4924067264315132,-0.08312800003367109,819.5604395604396,808.2783882783883,813.919413919414,820.3663003663004,690.2197802197802,-0.075806,-0.011353,0.999878,7.297363,-4.216919,-3.738403,1,1,1,1,1,100.000000
2021-11-25 13:48:26.861,0.5954758045313772,0.003246066884628599,-0.2274966661506747,0.6416495418384468,0.3495678764891422,-0.09182523610400964,-0.008909665241448449,0.3943389130857967,0.6094161101398042,0.09352394888816806,0.0412094566290803,0.6307951943719596,0.1515046985456023,-0.07746037251454728,-0.2326045006410808,0.2972444517940145,-0.3962404295478916,-0.3627748144680776,-0.4250621543501945,-0.1655753033408364,815.5311355311355,806.2637362637363,807.4725274725275,819.5604395604396,974.2857142857143,-0.084778,0.023010,1.015259,7.237549,-5.869293,-1.495361,1,1,1,1,1,100.000000
2021-11-25 13:48:26.878,,,,,,,,,,,,,,,,,,,,,,,,,,,,,,,,,,,,,,/muse/elements/blink
2021-11-25 13:48:27.861,0.8807519932849945,-0.1446784733278936,-0.4742072693212463,0.9501232842407716,0.7658863838156653,-0.006833787327974508,-0.05035549243449784,0.7010314771651633,1.134067403388648,0.03932724307034927,0.1778726856907701,1.140032178658551,0.4883289896456323,-0.08772824975563649,-0.1187609968958944,0.5185197252481076,-0.2152356489548598,-0.2865338474716075,-0.6327841706889547,-0.2261404970083529,819.5604395604396,798.6080586080586,809.0842490842491,833.2600732600733,1028.681318681319,-0.092590,0.013977,1.004395,4.530945,-6.385193,-1.547699,1,1,1,1,1,100.000000
2021-11-25 13:48:28.859,0.1746329160242243,-0.3370393385489246,-0.1854955908926628,0.3105966296331368,0.1569032675348485,-0.2882808900731439,-0.1570677458561161,0.1173394499491145,0.4733117482636547,0.217332425975896,0.1808660151608657,0.5303339033958092,0.05710232847291577,-0.1360456358997414,-0.2121924923295773,0.3170010154047017,-0.1193435521562184,-0.3740641819092356,-0.4848459158827199,-0.008517313691314584,817.1428571428571,806.6666666666667,803.4432234432235,813.5164835164835,747.032967032967,-0.043213,0.005493,1.007935,5.039368,-6.347809,-0.755157,1,1,1,1,1,100.000000
2021-11-25 13:48:29.863,0.2788596457855719,0.1821588347221469,0.5065966267704992,0.8621075734686061,-0.1334769959956423,-0.04781991944993413,0.06937691022751978,0.5515591123100619,0.03740743873373228,0.143245743298637,0.1177938878900085,0.1894957262452437,0.06157468049091044,-0.1089570315418874,-0.0897085023499169,0.3014706552123423,-0.1572513277340234,-0.4249090548606659,-0.3722256690648188,0.03301710395180949,811.0989010989011,811.0989010989011,810.2930402930403,822.3809523809524,1057.692307692308,-0.153198,0.046021,1.007629,3.476715,-6.848755,3.110352,1,1,1,1,1,100.000000
2021-11-25 13:48:30.857,0.7284987226621513,0.09610747416130001,0.554106828055618,0.9780338039232505,0.4901504066682136,-0.08629271332156337,-0.1764771770920909,0.7984231637104313,0.9446638156733006,0.1308921346338197,-0.1701900046897492,1.057236249427942,0.3494405430928628,-0.069192654073962,-0.06268850196099578,0.3894164497615427,-0.1324559314751291,-0.512953257731364,-0.3608966899646732,0.05193477461881732,815.934065934066,801.4285714285714,799.8168498168499,816.3369963369963,899.3406593406594,-0.089355,0.024780,1.010193,4.852448,-5.540314,-0.052338,1,1,1,1,1,100.000000
2021-11-25 13:48:31.145,,,,,,,,,,,,,,,,,,,,,,,,,,,,,,,,,,,,,,/muse/elements/blink
2021-11-25 13:48:31.866,1.449021667755225,0.1375526368770566,0.6967380140009396,1.556457396944966,0.9104031526336186,0.04767272991702395,-0.127382017960965,1.078542994498898,1.064156681208079,0.2292442026858978,0.274734523049424,1.129088092846305,0.5150390798180036,0.02622808071646653,-0.1445709270220188,0.4972588982347985,-0.01658416213281175,-0.476854798538308,-0.4349258827468491,-0.02482066092722521,812.3076923076924,811.0989010989011,806.6666666666667,809.4871794871796,741.7948717948718,-0.077332,0.019836,1.008911,5.779572,-7.252502,-3.244934,1,1,1,1,1,100.000000
2021-11-25 13:48:32.862,1.19027540496475,0.2425781265310886,0.4860226349575317,1.26843510103759,0.6493814145644204,-0.01753691496118415,0.0308164994999107,0.7542729125188883,0.9903623439229574,0.2009152472246211,0.2745341363804225,1.01410701089432,0.3452488288102522,0.04818975993002207,-0.2104133251314424,0.4564483851936436,-0.1099479924025941,-0.3957438673858483,-0.3728678688163283,-0.2565939727262799,825.2014652014652,809.4871794871796,805.4578754578755,837.6923076923077,1126.593406593407,-0.070862,-0.003418,1.007996,3.544006,-5.525360,-2.676697,1,1,1,1,1,100.000000
2021-11-25 13:48:33.857,0.6089666240273338,0.897327393041201,0.3907475444473657,0.8639687204461075,0.3770891157016271,0.2379749785955233,-0.02169685607938588,0.6393257259706197,0.7132465316442506,0.5424333997123734,0.5328118139796173,0.9790139591967832,0.1474075743769668,-0.06593942839307554,-0.231076312605713,0.3529701449267586,-0.09813502710530972,-0.4945201465483524,-0.4225437706032296,-0.04164536435437257,817.1428571428571,808.2783882783883,812.7106227106227,817.5457875457876,863.8827838827839,-0.064087,-0.001648,1.005432,5.166473,-5.652466,-3.865509,1,1,1,1,1,100.000000
2021-11-25 13:48:34.857,1.083055406054166,0.8938885700154228,0.4644731081416725,1.232366091687893,0.7884431826871854,0.2363215231767423,0.1640341916695958,1.015967256592664,0.9281877173169276,0.5538573275519368,0.5465970033882028,1.07248073928774,0.1965009999693651,-0.05685650428386992,-0.1211256449801146,0.4055846168860964,-0.03916319576387422,-0.5820426842720561,-0.4981044961641086,0.0002143622756800703,819.5604395604396,799.4139194139194,806.6666666666667,824.3956043956044,705.934065934066,-0.054443,-0.000854,1.009399,4.747772,-5.316010,0.201874,1,1,1,1,1,100.000000
2021-11-25 13:48:35.861,0.6788913779659062,0.4108543741343338,0.3679521424358961,0.7244146169119722,0.3351042837159002,0.1195052520699138,0.0759622552906818,0.4626744023836699,0.5435524584117002,0.3786022903062453,0.3113913696975057,0.5870882550197951,0.1813334387764702,-0.1334518260659118,0.01322081827759946,0.2646099975461654,-0.238080961085767,-0.5851058801093314,-0.6336765029794733,-0.0900016740094297,806.6666666666667,805.0549450549451,811.5018315018315,817.1428571428571,869.1208791208792,-0.060242,0.007263,1.002869,4.957123,-5.151520,-3.641205,1,1,1,1,1,100.000000
2021-11-25 13:48:36.862,0.4313173020688589,0.6736065224738211,0.5228652318158162,0.2239472635586294,0.3464067631710225,0.1967856692915549,0.2464411797089452,0.4657447751335837,0.5238069325561526,0.3773503470576873,0.338121561757678,0.5916032553549991,0.1243738229206596,0.03515006552886863,0.04453050192208247,0.2372324984357708,-0.2374465438638619,-0.4595871178065937,-0.6283804827247551,-0.1162679946032925,821.5750915750916,810.6959706959707,808.2783882783883,822.7838827838829,819.1575091575091,-0.061890,0.012268,1.004028,6.519775,-6.138458,-2.534637,1,1,1,1,1,100.000000
2021-11-25 13:48:37.857,0.1968264173518935,-0.06571489435156914,0.08932296659039153,0.4148728400686013,0.2493277603648664,-0.03692045717473622,-0.09127500324400765,0.3762316829629115,0.3819557883015995,-0.008831955277922916,0.3073557963914843,0.5453430725657455,0.1927058709519374,-0.02723327968658757,-0.04887832905722257,0.1495354870570094,-0.2987090282277459,-0.3368997996490123,-0.3942175912624842,-0.2046040193841962,818.3516483516484,814.7252747252747,799.0109890109891,815.1282051282052,780.4761904761905,-0.082031,0.004944,1.010742,5.480499,-3.013153,-3.394470,1,1,1,1,1,100.000000
2021-11-25 13:48:38.857,0.9606296717132774,0.6186979515625128,0.2216201091636932,0.95036322640649,0.6758585454749262,0.3078708265292303,0.006910620235260812,0.7125042843677322,0.9766359660842587,0.01097645520238356,0.2672016890440382,0.7200876027382487,0.4365729323533916,-0.1445002004994945,-0.09034037657971945,0.3172361482889249,-0.3404709905539139,-0.2778073682381161,-0.4209105559842127,-0.1401167112078625,815.5311355311355,805.0549450549451,805.4578754578755,818.7545787545788,777.2527472527473,-0.122314,0.035339,1.011108,6.602020,-3.237457,0.829926,1,1,1,1,1,100.000000
2021-11-25 13:48:39.780,,,,,,,,,,,,,,,,,,,,,,,,,,,,,,,,,,,,,,/muse/elements/blink
2021-11-25 13:48:39.857,0.878789659452633,0.4164996402279851,0.04893122877307824,0.8734121246214107,0.592818346661658,-0.05283373133644702,-0.2666740629973238,0.697761003359168,0.9766359660842587,-0.1288974193318833,0.2726307087480941,0.7344442230217452,0.5872750916052676,-0.2071290372292928,0.01095753277563168,0.4591110955164632,-0.1272588720827702,-0.3508224663657377,-0.3928201224613999,0.1127167153586119,864.2857142857143,808.6813186813187,805.4578754578755,863.0769230769231,729.3040293040293,-0.094910,0.028320,1.007141,5.644989,-7.820740,0.134583,1,1,1,1,1,100.000000
2021-11-25 13:48:40.383,,,,,,,,,,,,,,,,,,,,,,,,,,,,,,,,,,,,,,/muse/elements/blink
2021-11-25 13:48:40.857,1.013248568734789,0.472488050047644,0.5698242235427802,0.67245926063552,0.7673138374842121,0.3734509725296198,0.2225357663993609,-0.01958209648499852,1.16391353124395,0.4667223810156523,0.2522617309416303,0.1323877818120448,0.6191384487287073,-0.1870584729370526,0.07024248666350048,0.4272251654869,-0.09662031778958773,-0.3572989872586675,-0.282777354324398,0.3633894050556655,830.0366300366301,813.1135531135532,815.1282051282052,839.3040293040293,925.1282051282052,-0.082397,0.017822,1.019653,3.401947,-6.101074,-0.852356,1,1,1,1,1,100.000000
2021-11-25 13:48:41.856,1.521502596812921,1.312470155510063,0.9740605978282307,0.827604649095112,1.1821574076509,0.9359512248496304,0.5303792224313078,0.6369409530176656,1.196905089597642,0.6074719162258309,0.4477512060032762,0.8131145757561642,0.7285824773053784,-0.1310900287923962,0.09559270200057328,0.6432281179320612,0.1297629998451561,-0.5520003756797198,-0.2205117499801891,0.4083320832018886,815.1282051282052,808.2783882783883,809.8901098901099,823.992673992674,806.2637362637363,-0.087646,0.005554,0.999573,5.906677,-0.254211,-0.515900,1,1,1,1,1,100.000000
2021-11-25 13:48:42.857,1.473820890095744,1.306783110503569,0.9759094269827143,0.9096895749473569,1.129458854591377,0.8443511958876319,0.5025381931398024,0.5430537194734703,1.031609101819787,0.5929186951013192,0.4665839064359776,0.8142951350525387,0.6198662024454543,0.08397647045960037,0.05204406946884895,0.3848572086487235,0.0543719453386932,-0.6151208176784433,-0.4597143566121112,0.1586492016886069,800.2197802197802,807.8754578754579,802.6373626373627,792.5641025641025,854.6153846153846,-0.052551,0.000366,1.001404,4.979553,-4.351501,-2.415009,1,1,1,1,1,100.000000
2021-11-25 13:48:43.870,1.151003229807566,0.1781001023905668,0.5095312417425332,1.256570202219185,0.6615474201819053,-0.08134508186487199,-0.04561188990013094,0.6937607042866021,0.8737672372237213,0.2671239470849606,0.3181405528733801,1.042235765849538,0.4039552106641708,-0.02246993754784201,-0.06765155233858119,0.4126567255982697,-0.1346619074521191,-0.5035380316848165,-0.3980949371329018,0.05003634502269713,816.7399267399268,810.2930402930403,803.040293040293,805.4578754578755,706.3369963369963,-0.089905,0.017334,1.011963,2.482300,-5.764618,-1.323395,1,1,1,1,1,100.000000
2021-11-25 13:48:44.860,0.7070947625679411,-0.1366777089804276,0.090092484145083,0.7576254985950589,0.2479925142518366,-0.3295499284683299,-0.1684790181489099,0.3032762144550628,0.6336646606248124,0.2886130484547427,-0.002236184763981362,0.849850708926385,0.1309822585949539,-0.2095213745958458,-0.07551797614970553,0.3872836433736628,-0.2586952266583474,-0.7281804032257206,-0.4955777370139124,-0.005499993922655715,858.2417582417582,794.1758241758242,802.6373626373627,866.7032967032967,1005.311355311355,-0.070374,-0.004028,1.008545,5.301056,-4.927216,-2.886047,1,1,1,1,1,100.000000
2021-11-25 13:48:44.964,,,,,,,,,,,,,,,,,,,,,,,,,,,,,,,,,,,,,,/muse/elements/blink
2021-11-25 13:48:45.857,0.2520782946297663,0.5152742976687428,0.4054078096152553,0.2991259220152863,-0.1460588345734232,-0.1005739837863528,-0.1131641342008762,0.003053753824583854,0.1044823165665142,0.2454968436868052,0.05784150631235314,-0.1920774176821735,0.06448643623283283,-0.1790220860524853,-0.02542359696368766,0.347578596329378,-0.3575686262286946,-0.4949550324602706,-0.6165872529039087,-0.1923763580516857,818.7545787545788,804.2490842490843,809.4871794871796,832.4542124542124,675.7142857142858,-0.050049,0.004150,1.010071,3.790741,-5.428162,-1.712189,1,1,1,1,1,100.000000
2021-11-25 13:48:46.195,,,,,,,,,,,,,,,,,,,,,,,,,,,,,,,,,,,,,,/muse/elements/blink
2021-11-25 13:48:46.863,1.439724453976028,0.3235456173094452,0.4443453902847435,1.445308290007395,1.084514247062208,0.01521131264924053,0.05790135426043284,1.174013560313054,1.304510078728651,0.162525635054416,0.01734359174298153,1.067877037853012,0.5929014397138627,-0.1043993852496177,-0.08833469175928231,0.5314037675378771,-0.1486375834921357,-0.4179848441388644,-0.6006624608808466,0.1135435023742028,820.3663003663004,805.4578754578755,812.7106227106227,823.5897435897436,759.1208791208792,-0.048401,-0.006470,1.007446,5.585175,-4.889832,-3.177643,1,1,1,1,1,100.000000
2021-11-25 13:48:47.856,1.172532416695446,-0.3750246679243743,0.2786798497865608,1.257099541206841,0.7946725465640158,-0.1343588545300612,-0.005830861696081673,0.9238895232358358,1.304510078728651,-0.03956705914020406,-0.08366905633569728,1.05927703031008,0.3955231203957392,-0.1479674975429174,-0.1460801865764667,0.3866216324093027,-0.1794093052734736,-0.4425905119720856,-0.3883654687927012,-0.07498359880992267,821.1721611721612,804.6520146520147,814.7252747252747,842.5274725274726,1052.051282051282,-0.038025,0.006104,1.002625,1.682281,-6.033783,-2.280426,1,1,1,1,1,100.000000
2021-11-25 13:48:48.857,0.7824500182871797,0.3936149916436837,0.2429787333563773,0.9802646284408278,0.5276949778290999,0.1408993609940366,-0.04670525937739515,0.597649326899324,0.5546009467680777,0.1206793533468309,0.0005338754563880026,0.7948475313796499,0.2211835322426204,-0.04553598786804153,-0.0509550322228912,0.3787794424868386,-0.2825033479503847,-0.5051612163517171,-0.4511863383318682,-0.04728041106252847,819.1575091575091,807.0695970695971,812.3076923076924,816.3369963369963,736.959706959707,-0.055176,0.009399,1.017761,1.286011,-3.775787,-8.261871,1,1,1,1,1,100.000000
2021-11-25 13:48:49.869,0.1855382724684525,0.2770113144938905,0.2580244160951443,0.3180717790265348,0.1477949642078861,0.1043591511710143,-0.06192772675030307,0.3413563915457369,0.6630086033386461,0.3419653988026103,0.2619763896356231,0.7286757028619102,0.2455952657316389,0.1253397205546571,-0.05368835023298292,0.3879648756546148,-0.3206988932272277,-0.5230693586760092,-0.5321951037722322,-0.1996692300482602,811.9047619047619,802.2344322344322,803.040293040293,819.1575091575091,751.0622710622711,-0.049927,0.009827,1.025391,2.437439,-5.981445,-4.336548,1,1,1,1,1,100.000000
2021-11-25 13:48:50.869,0.1911285138064872,0.111245893440563,0.2398172670185058,0.3224216962671257,0.1488086137561745,0.2203365718538768,-0.2920699598041562,0.144006488728662,0.6355270205771928,0.3401069321622146,0.1826337872173191,0.4383628642348644,0.1728448829221901,0.08323380477574542,-0.1467285556151418,0.2766848469286826,-0.1294375656588587,-0.470461732278768,-0.6085755414346589,-0.2490928536603242,818.3516483516484,802.2344322344322,811.9047619047619,817.5457875457876,843.3333333333334,-0.014709,0.017212,1.021545,3.484192,-6.071167,-1.106567,1,1,1,1,1,100.000000
2021-11-25 13:48:51.856,0.2120712201180353,-0.3891195230004582,0.06288253924115321,0.5355438856123507,0.05748582056069199,-0.2136034685450973,-0.2816913966967366,0.0778602245332328,0.3435846916025035,-0.04332308511072329,-0.08683665290175258,0.4878023718070661,0.02871664397203619,-0.2151332014818738,-0.1354459546138113,0.1744078972902366,-0.2896719796251211,-0.4965937138641883,-0.6259363888401062,-0.1365782344777249,818.7545787545788,804.6520146520147,814.7252747252747,811.5018315018315,752.2710622710623,-0.056946,0.011292,1.013489,5.816956,-5.323486,0.261688,1,1,1,1,1,100.000000
2021-11-25 13:48:52.856,0.832363464778782,0.9178495573674282,0.6906701068706191,0.2868728652444886,0.5112308431016699,0.3235652062678047,0.09935023545525332,0.2767135392602853,0.5356560529684975,0.3527700642807841,0.3429062041568233,0.5250934411716494,0.08476481483680268,0.03634204558356181,0.1668205422148274,0.2874627684909725,-0.4306268225229613,-0.4967547322572483,-0.3684094993177232,0.009184722772739184,826.007326007326,811.5018315018315,809.0842490842491,820.3663003663004,786.5201465201466,-0.053101,0.001343,1.005676,5.787048,-4.000092,-1.405640,1,1,1,1,1,100.000000
2021-11-25 13:48:53.499,,,,,,,,,,,,,,,,,,,,,,,,,,,,,,,,,,,,,,/muse/elements/blink
2021-11-25 13:48:53.859,1.124848150199971,0.9251739339565899,0.5933797846013937,0.9342868035122641,0.8310926172804012,0.4334365699090043,0.1145643234337203,0.8030142184834763,1.047433429524708,0.5043458159698061,0.3166687742073215,1.097861098704556,0.2793851730366667,-0.00404944943725731,0.09414706141328187,0.2897891967364785,-0.2652907476671458,-0.3691032064607096,-0.443681986792093,-0.1004817375208035,832.0512820512821,803.8461538461539,810.6959706959707,832.4542124542124,906.996336996337,-0.037659,-0.001587,1.008423,5.861816,-4.112244,-3.043060,1,1,1,1,1,100.000000
2021-11-25 13:48:54.863,1.475944746435479,0.4484531807703004,0.1625853813936606,1.396479205919765,1.032844217568714,0.0007162025964606069,0.13081117152396,1.043444921659908,1.122926797318428,0.3301599499222513,0.2761296943293369,1.132481628920829,0.4657066299806203,-0.04215498395747249,-0.04296034705868276,0.5242436495923437,-0.2635548906313246,-0.4350256048151919,-0.5003488541520151,-0.03516790036440904,811.5018315018315,805.8608058608058,803.4432234432235,803.4432234432235,796.1904761904763,-0.074768,0.006409,1.016846,4.822540,-5.001984,-3.925323,1,1,1,1,1,100.000000
2021-11-25 13:48:55.857,1.213013603222658,0.3412864065333944,-0.1003906386168431,1.131971146885209,0.7584716717698652,-0.05660006604944269,-0.07689074611006497,0.6907505653667644,1.063229811851042,0.1073741255880391,0.2424022472294629,0.9413196242555287,0.3658095700619177,-0.0356769505716887,0.00728536251976102,0.4886286410736078,-0.2648481237712002,-0.4225394537750563,-0.4348912471348709,0.007398763588786202,820.3663003663004,813.5164835164835,809.0842490842491,823.5897435897436,749.4505494505495,-0.062134,0.011230,1.008179,4.373932,-4.523468,-2.624359,1,1,1,1,1,100.000000
2021-11-25 13:48:56.319,,,,,,,,,,,,,,,,,,,,,,,,,,,,,,,,,,,,,,/muse/elements/blink
2021-11-25 13:48:56.858,0.3236630024172455,0.4333553314928105,0.1040391270833371,0.2608941942055903,-0.004087444566465629,0.1688813472831205,-0.2826160541725708,0.01158054776836353,0.04057229996036172,0.09110036846127828,-0.03957240753340543,0.3454740496005714,0.02045422454077397,-0.06711005923756885,-0.1091015542545199,0.2513378194926797,-0.4004300544904791,-0.3783428774019015,-0.5630484428328435,-0.1789601634794095,826.8131868131868,810.2930402930403,804.2490842490843,825.2014652014652,821.1721611721612,-0.087769,0.008728,1.012573,5.330963,-3.035583,-0.209351,1,1,1,1,1,100.000000
2021-11-25 13:48:57.861,0.5658959953522694,0.4319493100343037,0.1921646546463255,0.7418478926031168,0.05668559008682757,0.07880776006399959,-0.121136502260303,0.168307298686335,0.1050498832286895,0.05426755111450148,-0.06120265395160718,0.05020340493447301,0.08770096664821016,-0.1468056632253803,-0.1551910028553817,0.1203050494540666,-0.4330627619690523,-0.3696084312654925,-0.4901821053115683,-0.1045799520005973,817.1428571428571,808.2783882783883,795.7875457875458,807.0695970695971,750.6593406593407,-0.097290,0.000854,1.008301,5.480499,-1.540222,-4.000092,1,1,1,1,1,100.000000
2021-11-25 13:48:58.857,0.5889250610286414,0.219247184046223,0.1156408621694946,0.6511098942528381,0.098619594668457,-0.2397811279379765,0.008802810253484093,0.1874583276361528,0.2991736068314086,0.1242438120160279,-0.01813981984180622,0.335927181646734,0.04858884112607741,-0.1600655239350926,-0.1163679214241965,0.1419318394234077,-0.5472665924873291,-0.5090760313783831,-0.4433569841322575,-0.1678840168087252,818.3516483516484,813.1135531135532,809.4871794871796,823.1868131868132,771.2087912087912,-0.057129,0.000854,1.006226,5.869293,-5.144043,-2.684174,1,1,1,1,1,100.000000
2021-11-25 13:48:59.857,0.3114492288704752,-0.03311488020525092,0.1718146286757647,0.5048771064302229,0.03445309546059745,-0.1355496021620718,-0.1330009351512361,-0.05726161951647401,0.3065068783196003,0.2483105725071089,-0.05527955854394451,0.2721680742614083,0.009313719149320738,-0.09972443664026286,-0.04374915342096399,0.2076221521500903,-0.5264333468062685,-0.4748298114762035,-0.5782289438013357,-0.1540774963723344,825.2014652014652,805.0549450549451,810.6959706959707,832.4542124542124,996.0439560439561,-0.082642,-0.004883,1.004578,4.673004,-5.458069,-4.762726,1,1,1,1,1,100.000000
