TimeStamp,Delta_TP9,Delta_AF7,Delta_AF8,Delta_TP10,Theta_TP9,Theta_AF7,Theta_AF8,Theta_TP10,Alpha_TP9,Alpha_AF7,Alpha_AF8,Alpha_TP10,Beta_TP9,Beta_AF7,Beta_AF8,Beta_TP10,Gamma_TP9,Gamma_AF7,Gamma_AF8,Gamma_TP10,RAW_TP9,RAW_AF7,RAW_AF8,RAW_TP10,AUX_RIGHT,Accelerometer_X,Accelerometer_Y,Accelerometer_Z,Gyro_X,Gyro_Y,Gyro_Z,HeadBandOn,HSI_TP9,HSI_AF7,HSI_AF8,HSI_TP10,Battery,Elements
2021-11-11 01:54:28.991,1.785098672059417,0.4597980640331174,0.3447680768878285,0.5692881672781918,1.032082885377149,-0.08782134337380372,-0.01799255562009727,0.2703612761688521,0.8344387294601466,0.2858139297454658,0.5218344348634494,0.6364568217665644,0.5396870916069939,0.03432023047352598,0.1098727453338617,0.4421840903020566,0.8104324110928337,-0.3015128403634664,-0.4407877374436704,0.1178762121586904,619.3040293040293,770,778.0586080586081,722.4542124542124,737.3626373626374,-0.133667,-0.026978,1.009033,3.087921,-3.529053,-4.575806,1,1,1,1,1,30.000000
2021-11-11 01:54:29.177,,,,,,,,,,,,,,,,,,,,,,,,,,,,,,,,,,,,,,/muse/elements/blink
2021-11-11 01:54:29.992,1.697741289348654,0.3916160346183208,0.8507758602453729,0.671569728641728,1.023754907176885,0.08391352722341507,0.4309698729534008,0.4435442938101924,0.7550876656315527,0.1786400173696345,0.3089090584681748,0.5818852822922267,0.5859763244141825,0.05244131753628686,0.0006508511258928569,0.4856573474329894,0.7825303840828345,-0.3998661373079284,-0.3562314015099523,0.005142054082872369,712.7838827838829,770.4029304029305,773.2234432234433,771.6117216117216,585.8608058608058,-0.261902,0.020935,0.972900,6.011353,6.661835,-0.328979,1,1,1,1,1,30.000000
2021-11-11 01:54:30.562,,,,,,,,,,,,,,,,,,,,,,,,,,,,,,,,,,,,,,/muse/elements/blink
2021-11-11 01:54:30.992,1.484444780766839,0.6234746314048158,0.8890698113305439,0.8353129962487803,1.026797561049666,0.2412479503958599,0.459360603216044,0.1560855561746176,0.8331727320140851,0.2430851763411787,0.2468295558828436,0.6546921957790249,0.5581327708172565,0.07844440197141905,0.03813945805961354,0.434045034855174,0.7365023065757836,-0.4767190732066612,-0.3225411921814517,0.251931734589735,624.5421245421246,709.1575091575091,825.6043956043957,681.3553113553114,723.6630036630037,-0.254456,0.063721,0.973572,-3.865509,22.953796,43.522491,1,1,1,1,1,30.000000
2021-11-11 01:54:31.168,,,,,,,,,,,,,,,,,,,,,,,,,,,,,,,,,,,,,,/muse/elements/blink
2021-11-11 01:54:31.992,1.484444780766839,1.633689196682193,1.435593108162913,0.8353129962487803,1.026797561049666,1.040447314889194,0.820999050065132,0.1560855561746176,0.8331727320140851,0.8309800100711832,0.4538866096700837,0.6546921957790249,0.5581327708172565,0.4134743339082042,0.2823278217963042,0.434045034855174,0.7365023065757836,0.4105383783177826,-0.05309474677295878,0.251931734589735,633.4065934065934,764.7619047619048,767.985347985348,749.047619047619,890.0732600732601,-0.298035,0.070618,0.951843,4.934692,-5.712280,-5.136566,1,1,1,1,1,30.000000
2021-11-11 01:54:32.069,,,,,,,,,,,,,,,,,,,,,,,,,,,,,,,,,,,,,,/muse/elements/blink
2021-11-11 01:54:32.673,,,,,,,,,,,,,,,,,,,,,,,,,,,,,,,,,,,,,,/muse/elements/jaw_clench
2021-11-11 01:54:32.926,,,,,,,,,,,,,,,,,,,,,,,,,,,,,,,,,,,,,,/muse/elements/blink
2021-11-11 01:54:32.992,1.484444780766839,1.668921634060195,1.339889239227248,0.8353129962487803,1.026797561049666,1.039211603661536,0.7998906632361811,0.1560855561746176,0.8331727320140851,0.8309800100711832,0.3931197339267123,0.6546921957790249,0.5581327708172565,0.4280276824571282,0.4517509319367264,0.434045034855174,0.7365023065757836,0.40429638005584,0.5912371656510377,0.251931734589735,540.3296703296703,709.9633699633699,827.2161172161173,685.7875457875458,666.0439560439561,-0.352417,0.090515,0.940369,6.818848,-8.957214,-2.706604,1,4,1,1,1,30.000000
2021-11-11 01:54:33.523,,,,,,,,,,,,,,,,,,,,,,,,,,,,,,,,,,,,,,/muse/elements/blink
2021-11-11 01:54:33.992,1.484444780766839,0.8603365611929704,1.28652223772032,0.8353129962487803,1.026797561049666,0.4304167591214383,0.8118165624883047,0.1560855561746176,0.8331727320140851,0.1359109018400071,0.6274527484527297,0.6546921957790249,0.5581327708172565,0.2324442565116136,0.8009707659118098,0.434045034855174,0.7365023065757836,0.08909788634360978,1.375424397549405,0.251931734589735,686.1904761904763,782.893772893773,798.2051282051282,800.2197802197802,681.3553113553114,-0.258423,0.043762,0.972778,4.560852,-2.624359,-10.273132,1,2,1,1,2,30.000000
2021-11-11 01:54:34.502,,,,,,,,,,,,,,,,,,,,,,,,,,,,,,,,,,,,,,/muse/elements/blink
2021-11-11 01:54:34.992,1.484444780766839,1.558090564475039,1.006627874803389,0.8353129962487803,1.026797561049666,1.206892300471296,0.7295633021884607,0.1560855561746176,0.8331727320140851,0.8327915678536691,0.5839206744922742,0.6546921957790249,0.5581327708172565,0.6622679091507119,0.5392565234312833,0.434045034855174,0.7365023065757836,0.6463763061061802,0.5138726759255917,0.251931734589735,294.9450549450549,714.7985347985348,791.7582417582418,771.6117216117216,766.7765567765568,-0.307800,0.133118,0.947327,-5.009460,5.727234,-1.914062,1,2,1,1,2,30.000000
2021-11-11 01:54:35.345,,,,,,,,,,,,,,,,,,,,,,,,,,,,,,,,,,,,,,/muse/elements/jaw_clench
2021-11-11 01:54:35.731,,,,,,,,,,,,,,,,,,,,,,,,,,,,,,,,,,,,,,/muse/elements/blink
2021-11-11 01:54:35.992,1.484444780766839,1.611507501566411,1.427181397874867,0.8353129962487803,1.026797561049666,1.232039407176969,0.7988645536302141,0.1560855561746176,0.8331727320140851,0.8327915678536691,0.2455673941501181,0.6546921957790249,0.5581327708172565,0.7338614405035668,0.9666515780060378,0.434045034855174,0.7365023065757836,0.7844946166675355,0.7308695218518814,0.251931734589735,753.4798534798535,765.1648351648352,790.1465201465202,793.7728937728938,638.6446886446887,-0.446228,0.058655,0.931152,-0.351410,-2.601929,-1.824341,1,2,1,1,2,30.000000
2021-11-11 01:54:36.572,,,,,,,,,,,,,,,,,,,,,,,,,,,,,,,,,,,,,,/muse/elements/blink
2021-11-11 01:54:36.992,1.484444780766839,1.712670407647531,1.789606853071717,0.8353129962487803,1.026797561049666,1.357298788646192,0.9335227007917674,0.1560855561746176,0.8331727320140851,0.8060024212975986,0.3041784017553317,0.6546921957790249,0.5581327708172565,0.8592631403055518,0.5267662637170204,0.434045034855174,0.7365023065757836,0.9621818068542416,0.1713642320056794,0.251931734589735,416.2271062271062,757.5091575091575,785.7142857142858,586.6666666666666,605.2014652014652,-0.291687,0.100891,0.963562,-0.082245,-6.646881,2.325287,1,2,1,1,2,30.000000
2021-11-11 01:54:37.185,,,,,,,,,,,,,,,,,,,,,,,,,,,,,,,,,,,,,,/muse/elements/blink
2021-11-11 01:54:37.255,,,,,,,,,,,,,,,,,,,,,,,,,,,,,,,,,,,,,,/muse/elements/jaw_clench
2021-11-11 01:54:37.992,1.484444780766839,1.712670407647531,1.900442866374889,0.8353129962487803,1.026797561049666,1.357298788646192,0.8809823987096611,0.1560855561746176,0.8331727320140851,0.8060024212975986,-0.1941706598233446,0.6546921957790249,0.5581327708172565,0.8592631403055518,0.1335775810781231,0.434045034855174,0.7365023065757836,0.9621818068542416,-0.09630746197770444,0.251931734589735,683.7728937728938,689.8168498168499,725.2747252747253,869.1208791208792,853.8095238095239,-0.343445,0.095459,0.940613,2.347717,-6.579590,1.114044,1,2,1,1,2,30.000000
2021-11-11 01:54:38.992,1.484444780766839,1.712670407647531,1.958756455965959,0.8353129962487803,1.026797561049666,1.357298788646192,0.8956968514190776,0.1560855561746176,0.8331727320140851,0.8060024212975986,-0.2046417425455552,0.6546921957790249,0.5581327708172565,0.8592631403055518,0.1451441518031714,0.434045034855174,0.7365023065757836,0.9621818068542416,-0.07177528640846749,0.251931734589735,639.4505494505495,772.014652014652,782.0879120879121,716.8131868131868,666.4468864468864,-0.376038,0.062256,0.925171,3.102875,-23.933258,0.284119,1,2,1,1,2,30.000000
2021-11-11 01:54:39.002,,,,,,,,,,,,,,,,,,,,,,,,,,,,,,,,,,,,,,/muse/elements/jaw_clench
2021-11-11 01:54:40.003,1.484444780766839,0.9478914380359611,1.087837296720342,0.8353129962487803,1.026797561049666,0.3459130803804042,0.1247534169086043,0.1560855561746176,0.8331727320140851,0.3022681739835813,-0.0674500886992718,0.6546921957790249,0.5581327708172565,0.7838152514499112,0.7948833348606703,0.434045034855174,0.7365023065757836,0.8753676132721797,0.4697855390833049,0.251931734589735,911.8315018315019,779.6703296703297,794.5787545787546,793.3699633699634,807.0695970695971,-0.301819,0.029480,0.951294,10.168457,-13.331146,-10.258179,1,2,1,1,2,30.000000
2021-11-11 01:54:40.992,1.484444780766839,0.9264042297741374,0.9527879636442241,1.575516503159285,1.026797561049666,0.1747707391185107,0.3920003923063113,0.3794709758529084,0.8331727320140851,0.1630404040522042,0.2502927325057241,1.46703441261018,0.5581327708172565,0.6287437155052098,0.7833384679824466,1.213591299922345,0.7365023065757836,0.7057500783454291,0.42522405521801,0.7113436208356972,896.9230769230769,770.4029304029305,787.7289377289378,818.3516483516484,801.8315018315019,-0.374146,0.140076,0.889587,5.794525,0.740204,-8.994598,1,1,1,1,1,30.000000
2021-11-11 01:54:41.992,1.484444780766839,1.53455030279008,1.197083668609008,1.655870150886088,1.026797561049666,0.4968507414773837,0.5803201311236326,0.5170921412685751,0.8331727320140851,0.634608751203811,0.3618377637343633,1.299204338949969,0.5581327708172565,0.2072907990563844,0.3489845058500964,0.9011595286397918,0.7365023065757836,-0.3252531100302198,-0.1306568312010884,0.6010138529558265,789.3406593406594,772.8205128205128,798.2051282051282,775.2380952380953,730.5128205128206,-0.350464,0.094543,0.953308,3.730927,-11.103058,0.186920,1,1,1,1,1,30.000000
2021-11-11 01:54:42.344,,,,,,,,,,,,,,,,,,,,,,,,,,,,,,,,,,,,,,/muse/elements/blink
2021-11-11 01:54:42.991,1.484444780766839,1.846675257307263,1.684631559321173,1.205300162992036,1.026797561049666,0.6462160119177517,0.8886434389296545,0.779888689476729,0.8331727320140851,0.7541616775158155,0.4273886734000054,0.2171233211487047,0.5581327708172565,0.1616095131018895,0.05670832723873118,0.6258997004102207,0.7365023065757836,-0.4095751182709384,-0.284015933840824,0.5111569448063001,736.1538461538462,789.3406593406594,786.9230769230769,776.4468864468864,825.6043956043957,-0.391357,0.170776,0.907715,10.646973,-4.613190,-1.443024,1,1,1,1,1,30.000000
2021-11-11 01:54:43.651,,,,,,,,,,,,,,,,,,,,,,,,,,,,,,,,,,,,,,/muse/elements/blink
2021-11-11 01:54:43.992,1.484444780766839,1.377104288454461,1.411292647393292,1.205300162992036,1.026797561049666,0.5907952655567461,0.8117988186858333,0.779888689476729,0.8331727320140851,0.2938947617085814,0.3733824574383525,0.2171233211487047,0.5581327708172565,0.07381885658780429,0.06031792680324188,0.6258997004102207,0.7365023065757836,-0.467080876460041,-0.2027178245258375,0.5111569448063001,1010.14652014652,794.981684981685,786.9230769230769,788.9377289377289,860.6593406593407,-0.407166,0.219177,0.908081,4.852448,-7.088013,-1.719666,1,1,1,1,1,30.000000
2021-11-11 01:54:44.763,,,,,,,,,,,,,,,,,,,,,,,,,,,,,,,,,,,,,,/muse/elements/blink
2021-11-11 01:54:44.992,1.622547790068889,0.974896609900371,0.9930681028956916,1.547410274061301,1.365359021614093,0.547672541524062,0.6156957458188886,0.9898959255812942,1.294864704431585,0.384770493754494,0.3016398010256713,0.9518023334729817,0.4627860385390303,0.1256002867252215,0.150425977244582,0.6124518595659623,1.041510324801433,-0.4040332678264117,-0.1767556900073616,0.2369838890387835,963.4065934065934,754.6886446886447,840.5128205128206,796.5934065934066,692.2344322344322,-0.246704,0.149597,0.958740,-28.217468,6.175842,60.292969,1,1,1,1,1,30.000000
2021-11-11 01:54:45.109,,,,,,,,,,,,,,,,,,,,,,,,,,,,,,,,,,,,,,/muse/elements/blink
2021-11-11 01:54:45.998,1.622547790068889,1.640961805006475,1.786880069103596,1.513651413066522,1.365359021614093,0.7832668125173449,0.5610198472880552,1.073471918983381,1.294864704431585,0.5471703608272287,0.4005981836192262,0.7578572687257878,0.4627860385390303,0.3184779335121365,0.2913931374705769,0.6779449048478259,1.041510324801433,0.1980897327357829,0.323289904138394,0.303824691314576,1083.479853479854,796.5934065934066,792.5641025641025,800.2197802197802,790.952380952381,-0.373230,0.027466,0.927063,3.005676,-2.482300,-0.590668,1,1,1,1,1,30.000000
2021-11-11 01:54:46.992,2.027088924773484,0.9579496261431255,1.364080766391841,0.9719245283110917,0.6921789123966477,0.03630930575774569,0.448608266154324,0.6936807554902312,0.4397076856117922,0.1993250144704347,0.3380080781228025,0.5876953825948049,0.8361697487046698,0.4735686517048289,0.4152879904964879,1.003864265192086,0.9898768016019668,0.309228108373762,0.4740541275017641,0.8314959693996544,1106.446886446887,793.3699633699634,772.4175824175825,827.2161172161173,849.3772893772895,-0.400574,0.090454,0.898804,-4.366455,-8.882446,13.376007,1,1,1,1,1,30.000000
2021-11-11 01:54:47.992,1.476230153198018,1.29853767355991,1.520068008773291,0.7990588672533594,0.387897786565312,0.6794011665604051,1.003302570692545,0.5133176670876527,0.3541249463433916,0.2051465595991102,0.5554853584277861,0.3462781539282653,0.7823175841918172,0.2858449877464851,0.1635317773442392,0.7387475107075825,0.7655435095274582,-0.07522067628876002,-0.04523268045291732,0.6005538479986396,1091.941391941392,836.0805860805862,777.2527472527473,764.3589743589744,790.1465201465202,-0.341675,0.082153,0.937988,11.207733,-15.895691,-26.557617,1,1,1,1,1,30.000000
2021-11-11 01:54:48.440,,,,,,,,,,,,,,,,,,,,,,,,,,,,,,,,,,,,,,/muse/elements/blink
2021-11-11 01:54:48.997,1.476230153198018,1.617821356188449,1.515384316412773,1.252469309532809,0.387897786565312,0.9048297821690993,0.9889471284750359,0.971728372841305,0.3541249463433916,0.1293543120972906,0.5896092037926158,0.3705847517769213,0.7823175841918172,0.03343945385935,0.1559650170212825,0.3469097774571825,0.7655435095274582,-0.2290291160030246,-0.1803778185278218,0.4390288886698625,905.7875457875458,791.3553113553114,803.040293040293,792.967032967033,743.0036630036631,-0.309387,0.122009,0.952759,2.878571,-6.534729,3.162689,1,1,1,1,1,30.000000
2021-11-11 01:54:49.992,1.749231657930262,1.17956191008246,0.7782259222492253,1.359445678387724,0.3608299492608071,0.4725356509529727,0.2832700481885876,0.3097614365475709,0.5053842407110768,0.2092064433782237,0.4594726483630359,0.6308513682483345,0.7982774943438888,0.08624923531601049,0.08313688153338045,0.5973073051724347,1.046752467566544,-0.3560144389354951,-0.1942956559056777,0.4838878341931423,941.2454212454213,784.1025641025641,788.9377289377289,756.3003663003664,837.6923076923077,-0.339417,0.101257,0.936829,4.471130,-14.258270,-3.925323,1,1,1,1,1,30.000000
2021-11-11 01:54:50.499,,,,,,,,,,,,,,,,,,,,,,,,,,,,,,,,,,,,,,/muse/elements/blink
2021-11-11 01:54:50.991,1.705768085431634,0.8714574792886559,1.315801558390495,1.368643694776898,0.4088667079873283,0.1932764091632767,0.4138515483820952,0.4481517184065834,0.5348399587300769,0.2875240258342916,0.2429827432311698,0.7750730210756427,0.6579847573667853,0.3690328921176095,0.2578928229939484,0.5382258591240073,0.9515999904741872,0.07553590672109139,0.05922479869271273,0.3201903355085805,947.2893772893773,792.967032967033,823.992673992674,766.3736263736264,735.3479853479854,-0.468140,-0.010010,0.892090,8.822632,-4.545898,-11.155396,1,1,1,1,1,30.000000
2021-11-11 01:54:51.815,,,,,,,,,,,,,,,,,,,,,,,,,,,,,,,,,,,,,,/muse/elements/blink
2021-11-11 01:54:51.991,1.583164286887449,1.485162482954119,1.670173474678097,1.310335039161548,0.4935773565490272,0.8284493849033777,0.9348474653408024,0.5749400186132569,0.4876208208384667,0.7283759586035362,0.6839775619018076,0.7634472285052375,0.407047769707843,0.7624541783538464,0.7995282196469504,0.4663934317821223,0.8414533994387112,0.5716504089443231,0.7472841264142323,-0.03783053305652254,774.4322344322345,803.040293040293,777.2527472527473,767.985347985348,720.0366300366301,-0.450928,0.017273,0.899780,-3.132782,-6.041260,-2.041168,1,1,1,1,1,30.000000
2021-11-11 01:54:52.094,,,,,,,,,,,,,,,,,,,,,,,,,,,,,,,,,,,,,,/muse/elements/blink
2021-11-11 01:54:52.991,1.583164286887449,1.838325430039391,1.823303222933654,1.310335039161548,0.4935773565490272,1.181179714679836,1.035518780558464,0.5749400186132569,0.4876208208384667,0.7283759586035362,0.6991937127518418,0.7634472285052375,0.407047769707843,0.8533436648604613,0.9613923615794316,0.4663934317821223,0.8414533994387112,0.744459152872242,0.8923411153993084,-0.03783053305652254,356.5934065934066,479.4871794871795,759.92673992674,363.8461538461539,636.2271062271062,-0.365173,-0.014893,0.898560,-0.194397,0.523376,-17.989197,1,1,1,1,1,30.000000
2021-11-11 01:54:53.028,,,,,,,,,,,,,,,,,,,,,,,,,,,,,,,,,,,,,,/muse/elements/blink
2021-11-11 01:54:53.028,,,,,,,,,,,,,,,,,,,,,,,,,,,,,,,,,,,,,,/muse/elements/jaw_clench
2021-11-11 01:54:53.212,,,,,,,,,,,,,,,,,,,,,,,,,,,,,,,,,,,,,,/muse/elements/blink
2021-11-11 01:54:53.998,1.583164286887449,1.838325430039391,1.941841624937298,1.310335039161548,0.4935773565490272,1.181179714679836,1.046338047575192,0.5749400186132569,0.4876208208384667,0.7283759586035362,0.3843105782869392,0.7634472285052375,0.407047769707843,0.8533436648604613,0.9846395358242895,0.4663934317821223,0.8414533994387112,0.744459152872242,0.9832191869341496,-0.03783053305652254,850.1831501831502,821.978021978022,792.967032967033,782.4908424908425,659.5970695970697,-0.348694,-0.064575,0.965820,1.143951,-8.553467,-3.514099,1,2,1,1,2,30.000000
2021-11-11 01:54:54.327,,,,,,,,,,,,,,,,,,,,,,,,,,,,,,,,,,,,,,/muse/elements/blink
2021-11-11 01:54:54.999,1.583164286887449,1.359233489864001,0.9493300250905219,1.310335039161548,0.4935773565490272,0.6210954422509667,0.6263672910547996,0.5749400186132569,0.4876208208384667,0.6231428645368104,0.3877867345124787,0.7634472285052375,0.407047769707843,0.5458267855230745,0.7756602091204303,0.4663934317821223,0.8414533994387112,0.6388671234558884,0.55752764350458,-0.03783053305652254,637.032967032967,783.2967032967033,807.8754578754579,815.934065934066,670.4761904761905,-0.326843,0.048706,0.958862,8.658142,-5.719757,-3.947754,1,2,1,1,2,30.000000
2021-11-11 01:54:55.035,,,,,,,,,,,,,,,,,,,,,,,,,,,,,,,,,,,,,,/muse/elements/blink
2021-11-11 01:54:55.356,,,,,,,,,,,,,,,,,,,,,,,,,,,,,,,,,,,,,,/muse/elements/blink
2021-11-11 01:54:55.747,,,,,,,,,,,,,,,,,,,,,,,,,,,,,,,,,,,,,,/muse/elements/jaw_clench
2021-11-11 01:54:55.991,1.583164286887449,1.475903789339842,1.37454741836968,1.310335039161548,0.4935773565490272,0.7093988521623193,0.9663036074572293,0.5749400186132569,0.4876208208384667,0.6285250933325011,0.7368825613549062,0.7634472285052375,0.407047769707843,0.5355851029731734,0.602054008860436,0.4663934317821223,0.8414533994387112,0.3685750865742859,0.3965208764810447,-0.03783053305652254,576.1904761904763,1273.260073260073,1062.527472527473,802.2344322344322,708.3516483516484,-0.299500,0.100952,0.957397,5.360870,-6.736603,-0.874786,1,2,1,1,2,30.000000
2021-11-11 01:54:55.996,,,,,,,,,,,,,,,,,,,,,,,,,,,,,,,,,,,,,,/muse/elements/blink
2021-11-11 01:54:56.756,,,,,,,,,,,,,,,,,,,,,,,,,,,,,,,,,,,,,,/muse/elements/blink
2021-11-11 01:54:56.991,1.583164286887449,1.780410511781968,1.674728292228656,1.310335039161548,0.4935773565490272,0.8586270417140909,1.210478673940308,0.5749400186132569,0.4876208208384667,0.3154435359789043,0.7176798218180701,0.7634472285052375,0.407047769707843,0.6544412680728803,0.1786760301395567,0.4663934317821223,0.8414533994387112,0.1596873730212489,0.04924208867381927,-0.03783053305652254,697.0695970695971,729.3040293040293,772.4175824175825,784.5054945054945,570.1465201465202,-0.318848,0.104126,0.952454,2.370148,-10.886230,-3.095398,1,4,4,2,2,30.000000
2021-11-11 01:54:57.049,,,,,,,,,,,,,,,,,,,,,,,,,,,,,,,,,,,,,,/muse/elements/blink
2021-11-11 01:54:57.999,1.583164286887449,1.780410511781968,1.674728292228656,1.310335039161548,0.4935773565490272,0.8586270417140909,1.210478673940308,0.5749400186132569,0.4876208208384667,0.3154435359789043,0.7176798218180701,0.7634472285052375,0.407047769707843,0.6544412680728803,0.1786760301395567,0.4663934317821223,0.8414533994387112,0.1596873730212489,0.04924208867381927,-0.03783053305652254,573.3699633699634,790.5494505494506,776.8498168498169,771.2087912087912,727.6923076923077,-0.277100,0.093323,0.971619,3.596344,2.257996,1.218719,1,2,1,1,2,30.000000
2021-11-11 01:54:58.991,1.583164286887449,0.9991686528404897,1.205661131015933,0.7010894447275176,0.4935773565490272,0.1990067793671494,0.6584628940032651,0.7506028642244986,0.4876208208384667,0.5176578018607746,0.444921775077363,0.875688362859107,0.407047769707843,0.2729868183629443,0.3188534474245452,0.6640052120900609,0.8414533994387112,-0.2458799485580647,-0.2698176712901446,0.1455586782797202,643.0769230769231,792.1611721611722,785.3113553113553,787.3260073260074,655.5677655677656,-0.462097,0.003784,0.930359,1.719666,-1.704712,-2.826233,1,1,1,1,1,30.000000
2021-11-11 01:54:59.991,1.583164286887449,0.8076780607008749,0.5256084728059013,1.005553397935078,0.4935773565490272,0.2538036785674027,0.3010040037327072,0.8860761702693298,0.4876208208384667,0.3092180068857769,0.3511424325004925,1.190265073901456,0.407047769707843,0.360665891739066,0.32957536823818,0.8851737983723759,0.8414533994387112,0.1410501042888064,-0.1153698419200771,0.7670090170677227,607.6190476190476,804.2490842490843,781.2820512820513,789.3406593406594,609.6336996336996,-0.257812,0.076660,0.975281,12.800293,-6.998291,6.160889,1,1,1,1,1,30.000000
2021-11-11 01:55:00.991,1.850562754601083,0.1069268472163831,0.5735634438966081,0.7252108907527941,0.4223033246330641,0.1785806271437437,0.334203167686569,0.7481242648292851,1.332487837078977,0.4463086495038417,0.38749736857582,1.329014799786343,0.9294529558648905,0.4693281510400529,0.3256218712165307,0.9325271838633754,0.7756434921834888,0.3110507219375556,0.0008900965966294778,0.6852356373160711,720.8424908424909,794.5787545787546,785.7142857142858,770,769.5970695970697,-0.253357,0.028076,0.970825,4.344025,2.826233,3.917847,1,1,1,1,1,30.000000
2021-11-11 01:55:01.990,1.588475519599811,0.2837673886456948,0.6427106477101902,0.6448767231058237,0.2349215590847656,0.04780747363143696,0.2341078312768132,0.5263787189199449,1.335727910304703,0.4672962225429001,0.3789956745621266,1.270077830923632,0.9015216863098077,0.2111534811821653,0.06185835410078708,0.739037684129405,0.6665606634691619,0.07368406769310742,-0.2867752646551739,0.5129320126622988,683.3699633699634,793.7728937728938,787.7289377289378,777.2527472527473,627.3626373626374,-0.239197,0.031921,0.969177,-2.519684,-6.130981,-16.979828,1,1,1,1,1,30.000000
2021-11-11 01:55:02.991,1.090027126819914,-0.1169007530198256,0.3704563820464833,0.498224746688317,0.4397130777937564,-0.2959448035254624,-0.1117240198510545,0.262359114629118,1.150715756416752,0.2478796427714091,0.3381470196704631,1.415484479623914,0.8250530285663702,0.07067720712257884,-0.01250933798927146,0.5641959788458363,0.6335869155756138,-0.08779452598336669,-0.164345218348299,0.3124613408907383,657.5824175824176,808.2783882783883,781.6849816849817,749.047619047619,753.0769230769231,-0.309875,0.088440,0.958618,9.233856,2.923431,-6.033783,1,1,1,1,1,30.000000
2021-11-11 01:55:03.991,0.66237112438177,1.095797995391183,0.5389175973124573,0.4301517248552257,0.6532400022131751,0.5067835077634988,-0.09508354481408396,0.4615599651716107,1.43748637518594,0.466504943307135,0.3926362050993247,1.429169281538089,0.8225236807632985,0.2715107975488347,0.06714686828139589,0.6046173395318114,0.6039482253130425,-0.1650751272316742,-0.2256798255411402,0.3363106406859964,921.9047619047619,797.8021978021978,796.1904761904763,860.2564102564103,734.5421245421246,-0.344910,0.126953,0.947144,6.018829,1.405640,-2.250519,1,1,1,1,1,30.000000
2021-11-11 01:55:04.799,,,,,,,,,,,,,,,,,,,,,,,,,,,,,,,,,,,,,,/muse/elements/blink
2021-11-11 01:55:04.990,1.693474097632171,1.420129507965784,1.247418266645329,1.704695735560046,0.6146261490965946,0.9649835762417681,0.5392236932043081,0.7522066214602817,1.619939406839006,0.5158082645623099,0.7564837256691249,1.393496875303277,0.9084602202042734,0.3806959759702558,0.1849682146063594,0.6593400832163265,0.5725517545426342,-0.1870625096858047,-0.1971385914042846,0.5370990826016847,834.8717948717949,782.0879120879121,804.2490842490843,786.5201465201466,777.6556776556777,-0.397339,0.084045,0.900085,12.575989,-7.760925,-3.910370,1,1,1,1,1,30.000000
2021-11-11 01:55:05.991,1.893982044647428,1.690366451927132,1.477505355742333,1.899280426653254,0.8116519009477442,0.9960009451120958,0.6131787147993844,0.6364776194456735,1.063536832369637,0.6518276226819728,0.7765475411228853,1.003731443076494,0.6983079717814216,0.2780856217607326,0.1286350166411142,0.6947541836925708,0.6034209270708744,-0.1361304490834485,-0.1149803958094417,0.5298402281893237,869.5238095238095,784.9084249084249,792.967032967033,801.025641025641,741.7948717948718,-0.387024,0.043640,0.930847,7.484283,-4.972076,-4.515991,1,1,1,1,1,30.000000
2021-11-11 01:55:06.001,,,,,,,,,,,,,,,,,,,,,,,,,,,,,,,,,,,,,,/muse/elements/blink
2021-11-11 01:55:06.991,1.893982044647428,1.039846650641696,0.3455422782156113,1.899280426653254,0.8116519009477442,0.2435768687267782,-0.1474790188317924,0.6364776194456735,1.063536832369637,0.150020595370649,0.4034802533527702,1.003731443076494,0.6983079717814216,-0.004833228201005194,0.001930842423453748,0.6947541836925708,0.6034209270708744,-0.2910369122249392,-0.262107492081854,0.5298402281893237,1000.47619047619,779.2673992673992,791.7582417582418,812.3076923076924,803.040293040293,-0.283264,0.050659,0.969788,8.732910,6.931000,-13.233948,1,1,1,1,1,30.000000
2021-11-11 01:55:07.994,1.191626116914082,1.161980794811497,0.9411057949317535,0.9321272978782272,0.5149938059237829,0.4378456699013351,0.1120466684736873,-0.05490400627427503,0.6673297922219419,0.279744948945534,0.4296199206117018,0.3591553657434187,0.7076029375737409,0.01643447206798922,0.0442601787356976,0.5193856120022493,0.6606408980302488,-0.354124093752068,-0.4252233144901766,0.4306762094717019,975.8974358974359,798.6080586080586,793.3699633699634,790.1465201465202,703.919413919414,-0.310303,0.075256,0.952698,4.456177,-1.345825,-0.044861,1,1,1,1,1,30.000000
2021-11-11 01:55:08.991,1.445540982591924,1.404943964144051,1.224544524729272,0.7523256596127157,1.135679401336586,0.8685501242290122,0.7940476179785363,0.284132150716723,1.171046107221132,0.857905704958192,0.8743950778890081,0.4370224950291677,0.7276994759019076,0.2319201015432363,0.243150347077157,0.5134297180360601,0.7812006555587153,-0.5447348535882964,-0.3905016425459715,0.4044342745753602,950.5128205128206,805.8608058608058,788.9377289377289,801.8315018315019,824.3956043956044,-0.335999,0.078247,0.953064,2.557068,-0.822449,3.409424,1,1,1,1,1,30.000000
2021-11-11 01:55:09.991,1.543394077530329,1.493400114226919,1.368305071051581,1.47071825227199,1.122286626267303,0.8202801798893309,0.8299241178024658,0.6254641001078268,1.12201072512194,0.8597646973621306,0.8660340043597468,0.4741251790833321,0.8292013229812406,0.2477570190841687,0.210939372254692,0.6938462232753877,0.6875820590785526,-0.2963815305551474,-0.3614796992551533,0.1794395628987186,1003.699633699634,802.6373626373627,801.8315018315019,818.3516483516484,796.996336996337,-0.345459,0.077271,0.942871,4.680481,-3.289795,2.272949,1,1,1,1,1,30.000000
2021-11-11 01:55:10.593,,,,,,,,,,,,,,,,,,,,,,,,,,,,,,,,,,,,,,/muse/elements/blink
2021-11-11 01:55:11.001,1.533257700130837,1.522249733232237,1.316725057100836,1.458877082926229,1.05557396496706,0.8560668124458445,0.6755071821545542,0.7719297705579282,0.8409974773897314,0.6447554637684272,0.483774424526032,0.5383817736307355,0.8371137363581781,0.2025862295304722,0.2222401746550046,0.7184170025502726,0.5167451104941655,-0.1587942739007381,-0.3407096820544435,0.2282320530311115,1015.384615384615,801.8315018315019,793.3699633699634,811.5018315018315,723.6630036630037,-0.342407,0.056824,0.999207,1.667328,11.297455,-6.512299,1,1,1,1,1,30.000000
2021-11-11 01:55:11.991,0.8901996864622052,1.110096212792616,0.7552818483192858,0.9055780834772862,0.939803609570124,0.5744871352635207,0.1670507518521951,0.5400379715429777,0.6682507823210475,0.4163930787476258,0.4334142295905351,0.4891701705950478,0.2896874989697127,0.08408514908531854,0.1592023351389557,0.4892781247802439,0.612434770105977,-0.3030002800019288,-0.4015125294140074,0.1366038929367116,967.032967032967,803.4432234432235,796.1904761904763,790.1465201465202,906.996336996337,-0.194702,0.057129,0.998779,9.540405,14.146118,1.031799,1,1,1,1,1,30.000000
2021-11-11 01:55:12.720,,,,,,,,,,,,,,,,,,,,,,,,,,,,,,,,,,,,,,/muse/elements/jaw_clench
2021-11-11 01:55:12.991,1.391870911791989,0.708407240907148,0.3512776975096371,1.430167913085471,0.8196194688449056,0.07039986044464454,0.2091514844491253,0.7044309920437671,0.6889176061328292,0.4077399601594939,0.337967012681865,0.3257532317187748,0.5580107509978608,0.03249439206011515,0.05720815981119891,0.4515379015410537,0.5997860431565197,-0.2247719688037887,-0.3204328509725773,0.3465545394318571,1039.96336996337,1243.443223443224,943.6630036630037,822.3809523809524,859.8534798534798,-0.403137,0.117676,0.916992,8.747864,7.745972,3.357086,1,1,1,1,1,30.000000
2021-11-11 01:55:13.637,,,,,,,,,,,,,,,,,,,,,,,,,,,,,,,,,,,,,,/muse/elements/blink
2021-11-11 01:55:13.937,,,,,,,,,,,,,,,,,,,,,,,,,,,,,,,,,,,,,,/muse/elements/blink
2021-11-11 01:55:13.991,1.706664623142253,1.056789240209863,0.4182637222371975,1.851310007560298,0.7417530872968507,0.2254381579982776,0.4809898980838428,0.9989633004212373,0.2319745914289461,0.3898478634153856,0.05076284572641895,0.09445706327264594,0.7481891114143179,0.05038219311804256,0.2246726257856867,0.5105991823605058,0.6000194422372203,-0.1274331937632122,-0.207506474452737,0.5506396210884145,1091.538461538462,810.6959706959707,759.92673992674,806.2637362637363,750.6593406593407,-0.380493,0.106750,0.934753,6.467438,-0.388794,-0.553284,1,1,4,1,1,30.000000
2021-11-11 01:55:14.991,1.706664623142253,1.056789240209863,0.7722787856578859,1.851310007560298,0.7417530872968507,0.2254381579982776,0.3330101975039508,0.9989633004212373,0.2319745914289461,0.3898478634153856,0.3432068926100017,0.09445706327264594,0.7481891114143179,0.05038219311804256,0.7224301236782175,0.5105991823605058,0.6000194422372203,-0.1274331937632122,0.6370534148608481,0.5506396210884145,1077.435897435897,811.5018315018315,776.8498168498169,802.2344322344322,814.7252747252747,-0.350769,0.050415,0.927368,3.125305,6.579590,8.845062,1,1,1,1,1,30.000000
2021-11-11 01:55:15.753,,,,,,,,,,,,,,,,,,,,,,,,,,,,,,,,,,,,,,/muse/elements/blink
2021-11-11 01:55:15.991,1.803766018020656,1.081137211578993,0.7380587537951078,1.31553069371342,0.9461381877820004,0.3233184992219105,0.6064118515444239,0.7142229151699763,0.6981177860241052,0.2582105752751248,0.4617734089552471,0.7271659028843799,0.5814294880509497,0.1817874551136758,0.3974583117806741,0.6407248137076269,0.5783659485428616,-0.1531150630621382,0.3056857968461915,0.4122107643938637,949.3040293040293,807.0695970695971,792.967032967033,806.6666666666667,700.2930402930403,-0.353455,0.074646,0.939087,4.628143,4.605713,-1.136475,1,1,1,1,1,30.000000
2021-11-11 01:55:16.970,,,,,,,,,,,,,,,,,,,,,,,,,,,,,,,,,,,,,,/muse/elements/jaw_clench
2021-11-11 01:55:16.991,1.927120330207542,1.111426678480974,0.534359853240385,1.59321512549192,0.8102189943842685,0.394365091977488,0.3574840483154669,0.5225663237645889,0.5828200518769796,0.3976838597204093,0.3056140231281732,0.6698056162046849,0.6444354839032453,0.2104914916004429,0.02364035248476498,0.4626216567666273,0.6979694044151775,-0.2975346183261454,-0.0389690233348914,0.4932087436255419,665.2380952380953,809.0842490842491,763.956043956044,803.4432234432235,753.0769230769231,-0.275696,0.059998,0.968933,-2.250519,-1.697235,3.985138,1,1,1,1,1,30.000000
2021-11-11 01:55:17.991,1.927120330207542,0.6032498147104984,0.8444571645947772,1.89867748543404,0.8102189943842685,-0.1526136854482621,0.4130781699805917,0.2750372116329078,0.5828200518769796,0.4807270289960137,0.6538856331518493,0.5813296175673992,0.6444354839032453,0.3961285596426332,1.034440437469258,0.4920879368102762,0.6979694044151775,-0.01015553528005714,0.912762327774556,0.6342200426096961,881.2087912087912,1152.380952380953,775.2380952380953,788.9377289377289,737.3626373626374,-0.312622,0.078064,0.957642,4.007568,-3.723450,1.420593,1,1,1,1,1,30.000000
2021-11-11 01:55:18.207,,,,,,,,,,,,,,,,,,,,,,,,,,,,,,,,,,,,,,/muse/elements/blink
2021-11-11 01:55:18.505,,,,,,,,,,,,,,,,,,,,,,,,,,,,,,,,,,,,,,/muse/elements/blink
2021-11-11 01:55:18.991,1.927120330207542,0.4324664053071569,1.060113994855418,1.990906454409191,0.8102189943842685,-0.1819481096050481,0.5541433355579046,0.3145001089552087,0.5828200518769796,0.4634786206548609,0.9842463065789455,0.5813296175673992,0.6444354839032453,0.5312251133953387,1.366264989656591,0.5172722468637516,0.6979694044151775,0.1534929097798266,1.307124328522468,0.6773031880957786,923.5164835164835,652.7472527472528,691.025641025641,784.1025641025641,923.5164835164835,-0.300354,0.065735,0.959534,4.897308,-8.127289,-0.994415,1,1,1,1,1,30.000000
2021-11-11 01:55:19.140,,,,,,,,,,,,,,,,,,,,,,,,,,,,,,,,,,,,,,/muse/elements/blink
2021-11-11 01:55:19.729,,,,,,,,,,,,,,,,,,,,,,,,,,,,,,,,,,,,,,/muse/elements/blink
2021-11-11 01:55:19.993,1.927120330207542,0.4324664053071569,1.093674265503201,1.990906454409191,0.8102189943842685,-0.1819481096050481,0.03932551670004784,0.3145001089552087,0.5828200518769796,0.4634786206548609,0.9482405802623428,0.5813296175673992,0.6444354839032453,0.5312251133953387,1.309111555046204,0.5172722468637516,0.6979694044151775,0.1534929097798266,1.41071562865106,0.6773031880957786,966.6300366300367,685.3846153846154,736.959706959707,813.5164835164835,719.6336996336996,-0.295837,0.072876,0.960815,2.714081,-6.175842,-2.504730,1,2,1,1,2,30.000000
2021-11-11 01:55:20.729,,,,,,,,,,,,,,,,,,,,,,,,,,,,,,,,,,,,,,/muse/elements/blink
2021-11-11 01:55:20.990,1.927120330207542,0.4324664053071569,1.093674265503201,1.990906454409191,0.8102189943842685,-0.1819481096050481,0.03932551670004784,0.3145001089552087,0.5828200518769796,0.4634786206548609,0.9482405802623428,0.5813296175673992,0.6444354839032453,0.5312251133953387,1.309111555046204,0.5172722468637516,0.6979694044151775,0.1534929097798266,1.41071562865106,0.6773031880957786,1178.571428571429,793.3699633699634,824.7985347985348,851.7948717948718,938.4249084249085,-0.243042,0.048950,0.970947,3.566437,-7.028198,-2.168274,1,2,1,1,2,30.000000
2021-11-11 01:55:21.569,,,,,,,,,,,,,,,,,,,,,,,,,,,,,,,,,,,,,,/muse/elements/blink
2021-11-11 01:55:21.996,1.927120330207542,0.4324664053071569,1.531442203029022,1.990906454409191,0.8102189943842685,-0.1819481096050481,1.095235257998364,0.3145001089552087,0.5828200518769796,0.4634786206548609,0.3217967352864212,0.5813296175673992,0.6444354839032453,0.5312251133953387,0.5372076578259046,0.5172722468637516,0.6979694044151775,0.1534929097798266,0.5306534473078579,0.6773031880957786,946.0805860805862,803.040293040293,801.8315018315019,835.6776556776557,684.981684981685,-0.287964,0.129028,0.956299,5.787048,9.637604,-2.788849,1,2,1,1,2,30.000000
2021-11-11 01:55:22.465,,,,,,,,,,,,,,,,,,,,,,,,,,,,,,,,,,,,,,/muse/elements/blink
2021-11-11 01:55:22.991,1.927120330207542,1.4948547572437,1.206172183322399,1.990906454409191,0.8102189943842685,0.6376492591583484,0.6839556652910068,0.3145001089552087,0.5828200518769796,0.457138021097289,0.3596308965263904,0.5813296175673992,0.6444354839032453,0.3510785124443933,0.4857855733945858,0.5172722468637516,0.6979694044151775,0.48846408101418,0.3033693657995822,0.6773031880957786,934.7985347985348,778.0586080586081,787.7289377289378,801.4285714285714,653.5531135531136,-0.332336,0.139343,0.939148,2.362671,0.231781,6.041260,1,2,1,1,2,30.000000
2021-11-11 01:55:23.991,1.610985562255654,1.224035899445165,0.5804072947362509,0.3743065618218113,0.6582720673811165,0.3344458829531839,-0.1143531033919788,0.1923668470500082,0.7410435755957483,0.457138021097289,0.05433396468076254,0.357031946320748,0.7185773122508116,0.2023394876405636,0.114422948621695,0.4097672632130209,0.5837651126275675,0.1129325416906626,-0.2577361981549662,0.4051783444570375,977.9120879120879,773.2234432234433,771.2087912087912,801.025641025641,744.2124542124542,-0.309875,0.151978,0.944275,2.549591,-3.327179,0.411224,1,1,1,1,1,30.000000
2021-11-11 01:55:24.603,,,,,,,,,,,,,,,,,,,,,,,,,,,,,,,,,,,,,,/muse/elements/blink
2021-11-11 01:55:24.991,1.468677176868756,0.7497664716274797,1.242160757880989,0.6454762426764485,0.3813439335163473,-0.03214402011617253,0.4713280199695903,0.0880325706597521,0.7004896298893571,0.3411721104874742,0.2668403891790261,0.05752718815583486,0.8047995683327422,0.141640094538306,0.190638740633515,0.3609738269376395,0.6661993228972752,-0.2036059312397109,-0.2704184468898435,0.2249400122724608,770.4029304029305,724.8717948717949,773.2234432234433,790.952380952381,751.0622710622711,-0.356445,0.060608,0.898010,-22.579956,19.282684,37.668152,1,1,1,1,1,30.000000
2021-11-11 01:55:25.992,1.290409779762762,0.8015076580041187,1.507776658171952,0.8524460607367054,0.02106130194544766,0.1835809423648828,0.6989923906760194,0.7083769715137398,0.5817689378847992,0.3411536565688406,1.013189238661508,0.5566159541954226,0.8746456903315646,0.1761737009515593,0.575219217086679,0.9065135620823729,0.7241338848672315,-0.1987616576019516,0.1048274807398905,0.7693712718080716,804.2490842490843,772.014652014652,819.1575091575091,804.2490842490843,685.7875457875458,-0.396240,0.032593,0.932129,-7.745972,1.742096,18.527527,1,1,1,1,1,30.000000
2021-11-11 01:55:26.027,,,,,,,,,,,,,,,,,,,,,,,,,,,,,,,,,,,,,,/muse/elements/jaw_clench
2021-11-11 01:55:26.216,,,,,,,,,,,,,,,,,,,,,,,,,,,,,,,,,,,,,,/muse/elements/jaw_clench
2021-11-11 01:55:26.310,,,,,,,,,,,,,,,,,,,,,,,,,,,,,,,,,,,,,,/muse/elements/blink
2021-11-11 01:55:26.991,1.290409779762762,1.004603785254312,1.48927982372689,0.7128251743297921,0.02106130194544766,0.7512451943165566,1.196928112198167,0.7204360638756714,0.5817689378847992,0.9038994798552514,1.028963010283702,0.5808715262931381,0.8746456903315646,0.618791018856016,0.5869790828701623,1.018173325384817,0.7241338848672315,0.7006997814510911,0.3838847959812522,0.9811823535768618,832.8571428571429,777.6556776556777,815.1282051282052,783.2967032967033,797.8021978021978,-0.458679,0.074097,0.906311,-41.496277,-3.147736,72.525024,1,1,1,1,1,30.000000
2021-11-11 01:55:27.991,1.290409779762762,1.042211685335588,1.607742493909148,1.278677126370206,0.02106130194544766,0.2874851159024354,1.1040266997223,0.70079591032819,0.5817689378847992,0.3917045220298023,0.6430878772406934,0.7109814458951165,0.8746456903315646,0.490145173670544,0.6383673453697766,1.217273157270757,0.7241338848672315,0.5044423001221074,0.3964103117435588,0.8327874528946928,706.7399267399268,800.6227106227107,768.3882783882784,793.7728937728938,756.3003663003664,-0.418945,0.020813,0.913574,5.607605,-9.278717,-11.947937,1,1,1,1,1,30.000000
2021-11-11 01:55:28.135,,,,,,,,,,,,,,,,,,,,,,,,,,,,,,,,,,,,,,/muse/elements/blink
2021-11-11 01:55:28.648,,,,,,,,,,,,,,,,,,,,,,,,,,,,,,,,,,,,,,/muse/elements/blink
2021-11-11 01:55:28.990,1.290409779762762,1.434032637432644,1.293490016349134,1.189989725934333,0.02106130194544766,0.7162252417487553,0.6609416095583505,0.5739036316998634,0.5817689378847992,0.1777406868958259,0.6403195490793938,0.5821797897309112,0.8746456903315646,0.5978422729796431,0.5497914599836805,1.247437762503345,0.7241338848672315,0.2482755181867593,0.2958314364660192,0.7866189326299994,666.0439560439561,798.2051282051282,801.8315018315019,768.7912087912088,504.8717948717949,-0.339478,0.081482,0.951233,5.929108,-5.936584,-11.656342,1,1,1,1,1,30.000000
2021-11-11 01:55:29.991,1.343623014831534,1.626917166190749,1.35615410247833,0.8788769760490182,0.8338355463568738,0.8821480267569816,0.6157525012430943,0.9936129151129311,0.7697428834752532,0.3763543029717024,0.5234655207052882,1.120947180089956,0.7262785523750619,0.4939264847177368,0.5145802847993569,0.9479806412448941,0.9478634673231982,0.1995100149728295,0.3053484392355848,0.6362885899633774,645.4945054945055,804.6520146520147,787.3260073260074,772.014652014652,729.7069597069598,-0.354370,0.070496,0.934509,2.572021,-18.228455,-3.117828,1,1,1,1,1,30.000000
2021-11-11 01:55:30.986,,,,,,,,,,,,,,,,,,,,,,,,,,,,,,,,,,,,,,/muse/elements/blink
2021-11-11 01:55:30.997,1.65753782991837,0.6339980214879292,0.5493485052599789,0.6978892435830009,0.9538650039362102,0.2416069986223516,0.3505544907319314,0.6311702349558784,1.042233695268588,0.3869273213529751,0.5253126449400296,1.120947180089956,0.8483074888655826,0.3926587184391721,0.3822946093560399,0.7791244805334462,0.8295122907246425,0.001383927576758675,0.2151421344510297,0.5623737392370964,640.2564102564103,806.2637362637363,784.5054945054945,791.3553113553114,657.985347985348,-0.358704,0.067322,0.947632,1.936493,-6.893616,-2.773895,1,1,1,1,1,30.000000
2021-11-11 01:55:31.991,1.681952207117776,0.2108065872712103,1.363013607220888,0.5498592377375233,0.9610219572238095,0.1534341829508951,0.8071818700244277,0.2887769108090347,0.9843954195201384,0.3623743554113122,0.3520260640330262,0.4788607806744711,0.8774887547680205,0.3118011276301728,0.3865462523796377,0.5502777888848948,0.8505117080906124,-0.1364047550081309,0.1172697730047944,0.5590272699807727,598.3516483516484,843.7362637362637,758.7179487179487,743.4065934065934,591.5018315018315,-0.297302,0.067200,0.954712,5.764618,-8.441315,-4.291687,1,1,1,1,1,30.000000
2021-11-11 01:55:32.991,0.6373822173145979,1.077667646559579,1.234529180103172,0.8170189538476473,0.5040100164688183,0.5832634383337841,0.7618953267356283,0.5810758145824202,0.7777829502584054,0.6352204935573568,0.2166958013057924,0.7331750016769046,0.5368832383787365,0.03636196383200554,0.1060729046549607,0.5290988248832698,0.6101928301282967,-0.3781751116164141,-0.2287468798494514,0.2254570381745147,554.8351648351648,801.4285714285714,813.1135531135532,705.934065934066,707.948717948718,-0.256042,0.042542,0.974976,6.175842,1.809387,0.052338,1,1,1,1,1,30.000000
2021-11-11 01:55:33.137,,,,,,,,,,,,,,,,,,,,,,,,,,,,,,,,,,,,,,/muse/elements/blink
2021-11-11 01:55:33.945,,,,,,,,,,,,,,,,,,,,,,,,,,,,,,,,,,,,,,/muse/elements/jaw_clench
2021-11-11 01:55:33.999,0.8523654603762286,1.334029083798608,1.110543281506797,0.7694480598121252,0.5223435131329779,0.5941237104055117,0.396231921926914,0.6072017126585044,0.8185267392374563,0.5003807475277315,0.2268709198458263,0.7484467935984318,0.5025822188941109,0.04862261064937012,0.06769942991103292,0.5026422166558246,0.5398561945307795,-0.2174385694959088,-0.2313826848012608,0.2644336807300495,488.3516483516484,1549.267399267399,1294.212454212454,705.1282051282052,716.8131868131868,-0.322144,0.067322,0.956604,6.198273,-3.222504,-4.366455,1,1,1,1,1,30.000000
2021-11-11 01:55:34.130,,,,,,,,,,,,,,,,,,,,,,,,,,,,,,,,,,,,,,/muse/elements/jaw_clench
2021-11-11 01:55:34.562,,,,,,,,,,,,,,,,,,,,,,,,,,,,,,,,,,,,,,/muse/elements/blink
2021-11-11 01:55:34.727,,,,,,,,,,,,,,,,,,,,,,,,,,,,,,,,,,,,,,/muse/elements/blink
2021-11-11 01:55:34.992,0.9436912162591065,1.509449448905336,1.090607482692175,0.7084029971807568,0.6309193298376162,0.6970332173261069,-0.2286924083361584,0.4883316620008974,0.8023657166711798,0.2061859099995701,0.1758241427263105,0.6380199011762092,0.4953251973943718,0.03999130879666742,-0.001352942916656041,0.4415770589151875,0.4936296926200076,-0.1854853349379289,-0.1859070326872505,0.184538218887425,610.8424908424909,576.1904761904763,776.0439560439561,769.5970695970697,510.9157509157509,-0.329529,0.060730,0.955200,3.312225,-5.256195,-1.046753,1,1,4,1,1,30.000000
2021-11-11 01:55:35.160,,,,,,,,,,,,,,,,,,,,,,,,,,,,,,,,,,,,,,/muse/elements/blink
2021-11-11 01:55:35.433,,,,,,,,,,,,,,,,,,,,,,,,,,,,,,,,,,,,,,/muse/elements/blink
2021-11-11 01:55:35.991,0.9436912162591065,1.509449448905336,1.090607482692175,0.7084029971807568,0.6309193298376162,0.6970332173261069,-0.2286924083361584,0.4883316620008974,0.8023657166711798,0.2061859099995701,0.1758241427263105,0.6380199011762092,0.4953251973943718,0.03999130879666742,-0.001352942916656041,0.4415770589151875,0.4936296926200076,-0.1854853349379289,-0.1859070326872505,0.184538218887425,578.6080586080586,750.6593406593407,770.8058608058608,770,695.0549450549451,-0.252075,0.059448,0.976868,3.357086,-10.303040,-2.310333,1,2,1,1,2,30.000000
2021-11-11 01:55:36.990,0.9436912162591065,1.040364231751565,1.497445505705712,0.7084029971807568,0.6309193298376162,0.2027538970736773,0.4283416827825983,0.4883316620008974,0.8023657166711798,0.3407066416293631,0.3727403119095671,0.6380199011762092,0.4953251973943718,0.6035631938152646,0.390262461652661,0.4415770589151875,0.4936296926200076,0.2750968180766827,0.4874407111324523,0.184538218887425,624.5421245421246,824.7985347985348,754.2857142857143,765.1648351648352,766.3736263736264,-0.341492,0.056274,0.944885,2.355194,-12.045135,-3.902893,1,2,1,1,2,30.000000
2021-11-11 01:55:37.990,0.9436912162591065,1.52640252907805,1.428614309678628,0.7084029971807568,0.6309193298376162,0.6639182775304836,0.8780553973913615,0.4883316620008974,0.8023657166711798,0.5969191107439776,0.7986138695303532,0.6380199011762092,0.4953251973943718,0.4272654438225253,0.4095077742186038,0.4415770589151875,0.4936296926200076,0.2176168844765522,0.4232280370712095,0.184538218887425,1173.736263736264,789.7435897435897,800.6227106227107,731.7216117216118,621.3186813186813,-0.284607,0.066101,0.969788,0.373840,-7.506714,13.839569,1,2,1,1,2,30.000000
2021-11-11 01:55:38.990,0.9436912162591065,1.487458467261191,1.276028159053243,1.811733564192171,0.6309193298376162,0.5058480894578748,0.7791044385507426,0.7539749753016634,0.8023657166711798,0.566852176314152,0.7261015865174377,0.3824894181486704,0.4953251973943718,0.220678358140248,0.2593799423237253,0.585665460916218,0.4936296926200076,-0.03808083613566673,0.07404599419051816,0.7451460397018295,553.2234432234433,794.981684981685,774.8351648351648,771.2087912087912,653.1501831501831,-0.305420,0.069763,0.955627,2.422485,3.566437,-5.323486,1,2,1,1,1,30.000000
2021-11-11 01:55:40.000,0.9436912162591065,0.467764177931132,0.7536424642335501,1.811733564192171,0.6309193298376162,-0.1308206445647069,0.3946569297192026,0.7539749753016634,0.8023657166711798,0.2653185185338284,0.5026351369892282,0.3824894181486704,0.4953251973943718,0.1631904761186178,0.08372898039556427,0.585665460916218,0.4936296926200076,-0.1262572618080564,-0.1344289862310151,0.7451460397018295,655.5677655677656,800.6227106227107,787.7289377289378,758.7179487179487,800.6227106227107,-0.322327,0.052124,0.950500,3.259888,-1.009369,-6.258087,1,2,1,1,1,30.000000
2021-11-11 01:55:40.542,,,,,,,,,,,,,,,,,,,,,,,,,,,,,,,,,,,,,,/muse/elements/blink
2021-11-11 01:55:40.990,0.9436912162591065,1.517868267003029,1.134120799537949,1.811733564192171,0.6309193298376162,0.6086782853423439,0.5714161932361114,0.7539749753016634,0.8023657166711798,0.541872489031326,0.3609787124476937,0.3824894181486704,0.4953251973943718,0.2376844646847143,0.08452305105782462,0.585665460916218,0.4936296926200076,0.04438816703208917,-0.2172460041706006,0.7451460397018295,658.7912087912088,800.2197802197802,792.967032967033,761.5384615384615,665.6410256410256,-0.388855,0.128235,0.908020,1.315918,0.127106,0.321503,1,2,1,1,2,30.000000
2021-11-11 01:55:41.869,,,,,,,,,,,,,,,,,,,,,,,,,,,,,,,,,,,,,,/muse/elements/blink
2021-11-11 01:55:41.962,,,,,,,,,,,,,,,,,,,,,,,,,,,,,,,,,,,,,,/muse/elements/jaw_clench
2021-11-11 01:55:41.993,0.9436912162591065,1.62599686613915,1.165306407040212,0.8564117242354203,0.6309193298376162,0.6420634235348598,0.5133845266647125,0.5165814428269404,0.8023657166711798,0.5855705596640625,0.561225681736974,0.732031569967022,0.4953251973943718,0.4086315595800133,0.3203268814373069,0.8258240150526412,0.4936296926200076,0.2022413538967513,0.1551987272624388,0.8002607337533413,477.0695970695971,821.5750915750916,787.3260073260074,756.3003663003664,784.9084249084249,-0.292480,0.136902,0.956787,11.648865,-30.654907,4.852448,1,1,1,1,1,30.000000
2021-11-11 01:55:42.990,0.9436912162591065,1.66047827936273,1.002699635930709,1.397445029943871,0.6309193298376162,0.5499473408944796,0.3825028469919811,0.7878967300282981,0.8023657166711798,0.6778717745485078,0.8044278538628067,1.144295674064171,0.4953251973943718,0.8192857612007443,0.9855862055514533,1.173342434597939,0.4936296926200076,0.6563217377878338,0.7769939642492595,1.052760825283066,781.2820512820513,789.3406593406594,804.6520146520147,784.9084249084249,836.8864468864469,-0.136658,0.207581,0.983582,0.321503,13.906860,1.196289,1,1,1,1,1,30.000000
2021-11-11 01:55:43.996,0.9436912162591065,1.503061100022034,0.6141002943420888,1.23626979727491,0.6309193298376162,0.4959593263165826,0.2808966799958263,0.7520990170226117,0.8023657166711798,0.4364256748441173,0.5042349866124221,0.9916532052129783,0.4953251973943718,0.495578250715844,0.228115685896367,0.8169364822873991,0.4936296926200076,0.1926594450753151,0.03804815533662873,0.5195450507428873,518.1684981684982,802.6373626373627,808.2783882783883,776.8498168498169,720.8424908424909,-0.151001,0.228088,0.972534,4.553375,11.858215,-2.751465,1,2,1,1,1,30.000000
2021-11-11 01:55:44.396,,,,,,,,,,,,,,,,,,,,,,,,,,,,,,,,,,,,,,/muse/elements/blink
2021-11-11 01:55:44.990,0.9436912162591065,1.283117966503703,0.5692688240686119,1.061685837964987,0.6309193298376162,0.5678928727668194,0.3172963086385301,0.7964192777892929,0.8023657166711798,0.4894237129865905,0.2748521837304011,0.9673274776162738,0.4953251973943718,0.3019308892479934,0.1612909802481978,0.8157028759518754,0.4936296926200076,0.02277299488023658,-0.02012019554208442,0.5395828750902127,363.8461538461539,788.5347985347986,787.7289377289378,762.7472527472528,718.8278388278388,-0.044617,0.326782,0.953186,2.213135,-12.695618,-6.721649,1,1,1,1,1,30.000000
2021-11-11 01:55:45.990,0.9436912162591065,1.159231217203427,0.3266373584794808,1.252945173971007,0.6309193298376162,0.4407872550179472,0.08810240610774593,0.4742894229786211,0.8023657166711798,0.4727721190938227,-0.00635891961352291,0.5162844219530779,0.4953251973943718,0.2980244079436319,-0.01459640885016024,0.68695946301343,0.4936296926200076,0.01038021446389945,-0.1443227431684656,0.5325887990615561,383.1868131868132,798.6080586080586,799.0109890109891,767.1794871794872,647.9120879120879,0.018738,0.257080,0.963867,3.080444,-8.254395,1.308441,1,1,1,1,1,30.000000
2021-11-11 01:55:46.990,0.9322483182561493,0.1210400256968254,0.242198670079429,0.99201702379387,0.6964912604855374,-0.1930032939063578,-0.09966427232533698,0.4005599250286689,0.949736191981069,0.253011923039155,-0.05903363827377683,0.7131914129865004,1.159774830403385,0.2171113356506985,0.02370568030655604,0.8374795692081386,1.396472126057854,0.1481924924624924,-0.09072782667753565,0.5042435935998899,510.5128205128206,794.1758241758242,790.1465201465202,748.2417582417582,648.3150183150183,-0.033997,0.243347,1.003662,2.497253,4.456177,-6.587067,1,1,1,1,1,30.000000
2021-11-11 01:55:47.257,,,,,,,,,,,,,,,,,,,,,,,,,,,,,,,,,,,,,,/muse/elements/blink
2021-11-11 01:55:47.992,0.9487182374059032,1.145772104176611,0.6641121557991641,1.05924256051445,0.636365259478745,0.1601848789063164,-0.007590675039387957,0.7474386177411877,0.9430846820567214,-0.03450315768557615,0.006161687590881142,0.8296001651918216,1.062629209641701,0.05166026812213328,0.07681728519055685,0.6606924039589568,1.456475980190749,0.02389903660910173,-0.3258450887424367,0.53544827302994,761.5384615384615,828.4249084249085,766.3736263736264,843.7362637362637,742.1978021978023,-0.569824,0.348572,0.789551,10.093689,4.074860,1.801910,1,1,1,1,1,30.000000
2021-11-11 01:55:48.995,1.149322736976141,1.490772204846128,1.489628772734116,1.344546485402347,0.6299965253510844,0.5585692504271058,0.3843881203860043,1.053082000508131,0.9287164828412323,0.4544871925577161,0.590549971993697,0.8138077373065695,0.9783989712909689,0.1559079455250998,0.1330227614969095,0.4594063034803955,1.435750684901278,0.08628988451140078,-0.1776842913069691,0.5953880732920802,612.4542124542124,823.1868131868132,795.7875457875458,760.3296703296703,699.8901098901099,-0.538879,0.293701,0.827942,-27.970734,-1.248627,13.645172,1,1,1,1,1,30.000000
2021-11-11 01:55:49.990,1.149322736976141,1.059725652690276,1.374044253415717,0.603139708049373,0.6299965253510844,0.6840626331911618,0.4379828608940541,0.4332767934061436,0.9287164828412323,0.6043375860104626,0.6304796882215746,0.5515374863500863,0.9783989712909689,0.2271705806494677,-0.03100697854082105,0.8405683390956802,1.435750684901278,-0.03273300662761992,-0.1372409225448081,0.8667378282556567,452.4908424908425,811.5018315018315,794.5787545787546,780.8791208791209,686.5934065934066,-0.485291,0.102051,0.883911,-0.598145,-7.603912,-5.899200,1,1,1,1,1,30.000000
2021-11-11 01:55:50.989,1.149322736976141,0.5949496796551219,0.541091817069316,1.108695156840017,0.6299965253510844,0.2236929176077693,0.01213554840633248,0.5968634427763319,0.9287164828412323,0.550211856013992,0.2879937382321971,0.6280199836841637,0.9783989712909689,0.1292451106099157,0.1083236706919967,0.7524438268502839,1.435750684901278,-0.1707745471318079,-0.2376550665419757,0.794172933607447,423.4798534798535,792.967032967033,801.4285714285714,786.5201465201466,736.959706959707,-0.484070,-0.095093,0.898743,2.400055,-7.544098,-14.766693,1,1,1,1,1,30.000000
2021-11-11 01:55:51.990,1.149322736976141,0.3589068701938453,0.4176724378203557,1.64444365234312,0.6299965253510844,0.1050657889349031,0.2225286564448803,0.8274789578373798,0.9287164828412323,0.1713291263210667,0.2033850171840965,0.4728284972791354,0.9783989712909689,0.1128823618084454,0.1704073181286948,0.785784210763351,1.435750684901278,-0.177330610369807,-0.01679503799537399,0.7595895718963349,602.7838827838827,787.3260073260074,811.5018315018315,780.4761904761905,820.3663003663004,-0.398560,0.048706,0.927246,9.278717,-6.886139,-1.973877,1,1,1,1,1,30.000000
2021-11-11 01:55:52.134,,,,,,,,,,,,,,,,,,,,,,,,,,,,,,,,,,,,,,/muse/elements/blink
2021-11-11 01:55:52.990,1.149322736976141,0.8025266004700726,1.085403079794277,1.461294275162038,0.6299965253510844,0.2500496480789871,0.5614398301640752,0.8033149731813631,0.9287164828412323,0.5409898502762027,0.5252281496541014,0.3056819179949044,0.9783989712909689,0.1180140997381274,0.1011794962597361,0.811984839512201,1.435750684901278,-0.2160772432245021,0.06490633718348329,0.6473242080070227,482.7106227106227,799.8168498168499,797.8021978021978,763.5531135531136,675.7142857142858,-0.274597,-0.008057,0.964722,-0.231781,-16.359253,-4.388885,1,1,1,1,1,30.000000
2021-11-11 01:55:53.443,,,,,,,,,,,,,,,,,,,,,,,,,,,,,,,,,,,,,,/muse/elements/blink
2021-11-11 01:55:53.991,1.149322736976141,0.9637644599806009,1.116251351968586,1.160241123569835,0.6299965253510844,0.1963769002547865,0.5133381069776598,0.7693425013798412,0.9287164828412323,0.5832172624858786,0.4899544417093271,0.9086993810793181,0.9783989712909689,0.1785713539024312,-0.07537058817010869,0.8108366041091215,1.435750684901278,-0.2522111209816622,-0.225004872906751,0.4718755526045521,469.4139194139194,807.8754578754579,810.2930402930403,748.2417582417582,773.6263736263736,-0.172180,0.096619,0.978699,7.499237,-11.970367,10.632019,1,1,1,1,1,30.000000
2021-11-11 01:55:54.057,,,,,,,,,,,,,,,,,,,,,,,,,,,,,,,,,,,,,,/muse/elements/blink
2021-11-11 01:55:54.151,,,,,,,,,,,,,,,,,,,,,,,,,,,,,,,,,,,,,,/muse/elements/jaw_clench
2021-11-11 01:55:54.242,,,,,,,,,,,,,,,,,,,,,,,,,,,,,,,,,,,,,,/muse/elements/blink
2021-11-11 01:55:54.990,1.149322736976141,0.9478426558385359,1.054643661480686,1.160241123569835,0.6299965253510844,0.04681080125632511,0.2192687462123295,0.7693425013798412,0.9287164828412323,0.5498076258342611,0.2094845281787486,0.9086993810793181,0.9783989712909689,0.1816205270608855,-0.04057550572237509,0.8108366041091215,1.435750684901278,-0.3082287972524493,-0.1225268272100673,0.4718755526045521,734.1391941391942,425.0915750915751,616.4835164835165,822.7838827838829,570.5494505494505,-0.202881,-0.055603,0.999573,-0.306549,9.398346,4.224396,1,2,1,1,2,30.000000
2021-11-11 01:55:55.563,,,,,,,,,,,,,,,,,,,,,,,,,,,,,,,,,,,,,,/muse/elements/blink
2021-11-11 01:55:55.992,1.149322736976141,0.9478426558385359,1.002699808723265,1.160241123569835,0.6299965253510844,0.04681080125632511,0.2459356853155835,0.7693425013798412,0.9287164828412323,0.5498076258342611,0.1310297907246138,0.9086993810793181,0.9783989712909689,0.1816205270608855,-0.04688967903141297,0.8108366041091215,1.435750684901278,-0.3082287972524493,-0.09523103427275884,0.4718755526045521,492.3809523809524,813.1135531135532,762.7472527472528,760.3296703296703,659.1941391941392,-0.307007,-0.011047,0.965820,4.067383,-3.558960,-2.773895,1,2,1,1,2,30.000000
2021-11-11 01:55:56.475,,,,,,,,,,,,,,,,,,,,,,,,,,,,,,,,,,,,,,/muse/elements/jaw_clench
2021-11-11 01:55:56.771,,,,,,,,,,,,,,,,,,,,,,,,,,,,,,,,,,,,,,/muse/elements/blink
2021-11-11 01:55:56.990,1.149322736976141,0.9478426558385359,1.002699808723265,1.160241123569835,0.6299965253510844,0.04681080125632511,0.2459356853155835,0.7693425013798412,0.9287164828412323,0.5498076258342611,0.1310297907246138,0.9086993810793181,0.9783989712909689,0.1816205270608855,-0.04688967903141297,0.8108366041091215,1.435750684901278,-0.3082287972524493,-0.09523103427275884,0.4718755526045521,712.3809523809524,807.0695970695971,792.1611721611722,781.2820512820513,761.5384615384615,-0.430115,-0.139099,0.891968,10.751648,-1.510315,-2.467346,1,2,2,1,2,30.000000
2021-11-11 01:55:57.821,,,,,,,,,,,,,,,,,,,,,,,,,,,,,,,,,,,,,,/muse/elements/blink
2021-11-11 01:55:57.997,1.149322736976141,0.7643575242330805,1.299656994176001,1.160241123569835,0.6299965253510844,1.086483961676487,0.7159500868700892,0.7693425013798412,0.9287164828412323,0.5460408520872805,0.4804216178944214,0.9086993810793181,0.9783989712909689,0.8103917300158953,0.8008917458380204,0.8108366041091215,1.435750684901278,0.3220426284814827,0.6209679218572373,0.4718755526045521,590.6959706959707,793.3699633699634,774.4322344322345,778.0586080586081,745.4212454212454,-0.370178,-0.068359,0.940125,-3.476715,-5.278625,-2.026215,1,4,1,1,2,30.000000
2021-11-11 01:55:58.834,,,,,,,,,,,,,,,,,,,,,,,,,,,,,,,,,,,,,,/muse/elements/blink
2021-11-11 01:55:58.990,1.149322736976141,0.931459918698712,1.629053429890952,1.160241123569835,0.6299965253510844,1.035742586917495,0.7512740280293476,0.7693425013798412,0.9287164828412323,0.8937822323443472,0.4171522324043405,0.9086993810793181,0.9783989712909689,0.6438571328899725,0.5644121833522726,0.8108366041091215,1.435750684901278,0.2157718757496817,0.4904955196795531,0.4718755526045521,873.5531135531136,839.3040293040293,771.2087912087912,765.1648351648352,668.8644688644689,-0.367249,-0.093262,0.939026,5.428162,-10.475006,-5.420685,1,2,1,1,2,30.000000
2021-11-11 01:55:59.992,1.149322736976141,1.372992140521661,1.395968192338917,1.160241123569835,0.6299965253510844,0.7720266769391992,0.5055969032916515,0.7693425013798412,0.9287164828412323,0.5727790988935855,0.4791587418435276,0.9086993810793181,0.9783989712909689,0.2193953950658364,0.5431082324249062,0.8108366041091215,1.435750684901278,-0.05635096651676281,0.149610855937642,0.4718755526045521,1055.677655677656,811.0989010989011,792.5641025641025,784.5054945054945,992.8205128205128,-0.302185,-0.081604,0.958435,4.231873,-5.667419,-2.265472,1,2,1,1,2,30.000000
2021-11-11 01:56:00.990,1.149322736976141,1.169824782253147,1.008491953138518,0.9876642734733597,0.6299965253510844,0.7865136363394939,0.5611317171098354,0.402618043935849,0.9287164828412323,0.3175423160270354,0.4865748896656996,0.6270969783532506,0.9783989712909689,0.1419083904311173,0.3494761899800184,0.800907966674577,1.435750684901278,-0.1770622602641918,0.007751207592886184,0.6451792953838676,928.7545787545788,811.9047619047619,782.4908424908425,782.4908424908425,863.8827838827839,-0.287415,-0.089539,0.958252,4.702911,-4.119720,-2.489777,1,1,1,1,1,30.000000
2021-11-11 01:56:01.280,,,,,,,,,,,,,,,,,,,,,,,,,,,,,,,,,,,,,,/muse/elements/blink
2021-11-11 01:56:01.995,1.149322736976141,0.9529216239487325,0.7204432992550727,1.317198505038403,0.6299965253510844,0.6062595303511991,0.5448802443285004,0.505268186460805,0.9287164828412323,0.4932680679111314,0.463949647754618,0.4911359366854845,0.9783989712909689,0.235240202468019,0.31125104957887,0.767457948813706,1.435750684901278,0.05306619992813505,-0.02386468747632921,0.5996367841609718,1083.076923076923,806.6666666666667,848.1684981684982,806.2637362637363,810.6959706959707,-0.306580,-0.063660,0.955688,6.138458,-3.132782,-4.650574,1,1,1,1,1,30.000000
2021-11-11 01:56:02.563,,,,,,,,,,,,,,,,,,,,,,,,,,,,,,,,,,,,,,/muse/elements/blink
2021-11-11 01:56:02.990,1.149322736976141,0.9090435090457605,1.599680451127431,1.534761373965277,0.6299965253510844,0.3613020257843755,0.5298616678729865,0.7501630736071283,0.9287164828412323,0.4304880878844849,0.4024290784958169,0.4082863421217613,0.9783989712909689,0.3159870789072545,0.2854416616103693,0.3815625681058445,1.435750684901278,0.2026940913072817,0.04493905453634173,0.4092820158014958,1037.948717948718,799.8168498168499,808.6813186813187,807.8754578754579,905.3846153846154,-0.332581,-0.005981,0.841797,9.009552,-35.843811,-82.057953,1,1,1,1,1,30.000000
2021-11-11 01:56:03.280,,,,,,,,,,,,,,,,,,,,,,,,,,,,,,,,,,,,,,/muse/elements/blink
2021-11-11 01:56:03.990,1.149322736976141,1.718062797967589,1.723062270010824,1.596715190800192,0.6299965253510844,0.7704388651887212,0.9334615480781198,0.7881350430768348,0.9287164828412323,0.5896849284571347,0.5579223757984435,0.4047527161770625,0.9783989712909689,0.4736253814525181,0.2513866003278747,0.360268305305227,1.435750684901278,0.2359612412821494,0.07068101680767652,0.4156781244653006,975.0915750915751,826.8131868131868,786.1172161172161,800.2197802197802,734.9450549450549,-0.331299,-0.146179,0.936584,3.992615,-20.576172,4.201965,1,1,1,1,1,30.000000
2021-11-11 01:56:04.990,1.149322736976141,1.645554804493132,1.688661119236227,1.122620919684282,0.6299965253510844,0.8954632952711892,0.9342624175454735,1.052724092046759,0.9287164828412323,0.576533289105669,0.4057929477184433,0.9180884667100556,0.9783989712909689,0.4444818613465512,0.372857645636007,0.9662534866619045,1.435750684901278,0.1283739277577723,0.01120226592788779,0.7912937281587262,1079.450549450549,781.2820512820513,786.9230769230769,858.6446886446887,834.0659340659341,-0.132019,-0.053650,1.061096,5.734711,-5.570221,-5.181427,1,1,1,1,1,30.000000
2021-11-11 01:56:05.990,1.149322736976141,1.711340378857175,1.166593782056647,1.122764878339811,0.6299965253510844,1.023596369193166,0.5062441398534423,1.112424685437428,0.9287164828412323,0.6067797959112332,0.2266375016510617,0.8645670743970846,0.9783989712909689,0.4459957943079269,0.2479665104930573,0.9636841763596601,1.435750684901278,0.1301454607989844,0.04513395161004233,0.7928235800165186,1118.534798534798,792.967032967033,780.0732600732601,809.4871794871796,868.7179487179487,-0.286987,-0.109680,0.988403,5.420685,-2.385101,3.783264,1,1,1,1,1,30.000000
2021-11-11 01:56:06.996,1.149322736976141,1.551415307893757,1.805154180369828,1.122764878339811,0.6299965253510844,0.8929979254921505,0.8559834594551626,1.112424685437428,0.9287164828412323,0.9766925350489694,0.4487536676406219,0.8645670743970846,0.9783989712909689,0.7363711100562579,0.56749743721708,0.9636841763596601,1.435750684901278,0.5151672976664096,0.4617023223305655,0.7928235800165186,1068.571428571429,849.7802197802198,819.5604395604396,834.4688644688645,824.3956043956044,-0.154236,-0.049438,1.026917,8.486176,1.375732,7.880554,1,1,1,1,1,30.000000
2021-11-11 01:56:07.989,1.149322736976141,1.245363384042516,1.528976438090862,1.101595634907203,0.6299965253510844,0.9034309559626513,0.3582011687940539,0.3282190510215375,0.9287164828412323,0.9709256890178862,0.4680869675815474,0.9038721068950351,0.9783989712909689,0.8481113730402466,0.7171508049010011,1.127537802859867,1.435750684901278,0.6906317323266733,0.6460187206382486,0.9818988763228049,990,751.8681318681319,846.5567765567765,822.7838827838829,796.996336996337,-0.138550,-0.058899,1.033875,-11.761017,2.325287,25.690308,1,1,1,1,1,30.000000
2021-11-11 01:56:08.146,,,,,,,,,,,,,,,,,,,,,,,,,,,,,,,,,,,,,,/muse/elements/blink
2021-11-11 01:56:08.577,,,,,,,,,,,,,,,,,,,,,,,,,,,,,,,,,,,,,,/muse/elements/blink
2021-11-11 01:56:08.990,1.149322736976141,1.245363384042516,1.620733615623167,1.205799343411827,0.6299965253510844,0.9034309559626513,0.6793026974329821,0.3275383496079021,0.9287164828412323,0.9709256890178862,0.9204251232996092,0.6677005562686359,0.9783989712909689,0.8481113730402466,0.7113440856512127,1.111016580888111,1.435750684901278,0.6906317323266733,0.480777468669966,0.9934614329797853,1083.076923076923,825.2014652014652,784.5054945054945,802.6373626373627,899.7435897435897,-0.204041,-0.165771,0.993225,0.912170,-7.910461,3.551483,1,1,1,1,1,30.000000
2021-11-11 01:56:09.989,1.149322736976141,1.001016117563364,1.642649166152616,1.457757250016581,0.6299965253510844,0.4482796796029904,0.8334363385295609,0.9403339605169783,0.9287164828412323,0.3930732774779961,0.8787055590281636,0.762822592137769,0.9783989712909689,0.416718303754595,0.4214081692905873,1.231314330064952,1.435750684901278,-0.3723396072851451,0.2710069161878411,0.8297472768097897,1061.318681318681,801.8315018315019,789.7435897435897,792.1611721611722,768.7912087912088,-0.101929,-0.215820,0.998413,-0.029907,-8.949738,-2.400055,1,1,1,1,1,30.000000
2021-11-11 01:56:10.989,1.149322736976141,0.8301978934790782,0.85660458800632,1.535405188105839,0.6299965253510844,0.1921066801488041,0.3966733231955547,1.004187820718932,0.9287164828412323,0.4671103578491458,0.5292840028188545,0.8397271433943664,0.9783989712909689,0.3011658978126129,0.132364160106491,1.114916626586318,1.435750684901278,-0.2957810886107283,-0.02371324861904047,0.6862978296671713,527.032967032967,806.6666666666667,785.3113553113553,742.6007326007326,890.8791208791209,-0.299988,-0.149109,0.937561,9.645081,4.964600,11.663818,1,1,1,1,1,30.000000
2021-11-11 01:56:11.387,,,,,,,,,,,,,,,,,,,,,,,,,,,,,,,,,,,,,,/muse/elements/blink
2021-11-11 01:56:11.990,1.149322736976141,0.6512344686194498,0.7808907820419354,1.792557853013017,0.6299965253510844,0.02381581422343878,0.2605521254682835,1.018893183950647,0.9287164828412323,0.2272021923930767,0.5449441071968761,0.7325669542791174,0.9783989712909689,0.1728883881097047,0.3019780949836522,0.8775434174711647,1.435750684901278,-0.2295441561612734,0.04135850281518849,0.5410197529828773,643.4798534798535,828.021978021978,815.5311355311355,799.8168498168499,591.9047619047619,-0.288940,0.063782,0.981018,5.136566,-5.674896,2.145844,1,1,1,1,1,30.000000
2021-11-11 01:56:12.647,,,,,,,,,,,,,,,,,,,,,,,,,,,,,,,,,,,,,,/muse/elements/blink
2021-11-11 01:56:12.989,1.149322736976141,1.199881520315194,0.8358720052083705,1.858097937133523,0.6299965253510844,0.9584177357603814,0.2469472395294729,0.6559753492297051,0.9287164828412323,0.5203201817797661,0.1944352814768245,0.71953674345198,0.9783989712909689,0.1251099348753701,0.3423511265510187,0.7188274864804785,1.435750684901278,-0.1099117832419988,0.05997867503204456,0.5267262511943509,620.1098901098901,838.4981684981685,839.3040293040293,592.7106227106227,677.3260073260074,-0.031860,-0.049744,1.019531,5.876770,3.551483,4.717865,1,1,1,1,1,30.000000
2021-11-11 01:56:13.133,,,,,,,,,,,,,,,,,,,,,,,,,,,,,,,,,,,,,,/muse/elements/blink
2021-11-11 01:56:13.362,,,,,,,,,,,,,,,,,,,,,,,,,,,,,,,,,,,,,,/muse/elements/jaw_clench
2021-11-11 01:56:13.992,1.149322736976141,1.522913647651497,1.179893206603339,1.858097937133523,0.6299965253510844,1.321978496644756,0.3024328149098461,0.6559753492297051,0.9287164828412323,0.4785111850470334,-0.01939216649106403,0.71953674345198,0.9783989712909689,0.07197249180195996,0.1379880731199861,0.7188274864804785,1.435750684901278,0.05387432933497439,-0.04467661335510158,0.5267262511943509,664.8351648351648,874.3589743589744,829.6336996336996,809.4871794871796,591.5018315018315,-0.172729,0.025940,0.999329,6.093597,-4.942169,-5.973969,1,1,1,1,1,30.000000
2021-11-11 01:56:14.990,1.149322736976141,1.522913647651497,1.266554458256793,1.040523187557268,0.6299965253510844,1.321978496644756,0.231723180555307,0.5889329286196628,0.9287164828412323,0.4785111850470334,-0.01939216649106403,1.107707113617017,0.9783989712909689,0.07197249180195996,-0.001789439427034418,1.310500342213649,1.435750684901278,0.05387432933497439,-0.1046482658560078,1.271696273622849,849.3772893772895,711.5750915750916,755.0915750915751,786.9230769230769,581.4285714285714,-0.168152,-0.032043,0.991638,6.228180,-2.684174,2.347717,1,2,1,1,2,30.000000
2021-11-11 01:56:15.990,1.495969109281297,1.522913647651497,0.5568017827978514,1.319628527926753,0.5416502738094863,1.321978496644756,0.2382464224571973,0.392204749919495,0.9813525556570371,0.4785111850470334,0.423513661804312,1.271665818738634,0.7416228727266846,0.07197249180195996,0.2501481246553569,1.036220187055254,0.8409336346704451,0.05387432933497439,-0.1380731892515876,0.9268020554614067,944.8717948717949,833.2600732600733,789.3406593406594,746.6300366300367,749.047619047619,-0.182434,-0.030151,0.992737,6.018829,-3.798218,-1.300964,1,1,1,1,1,30.000000
2021-11-11 01:56:16.990,1.635057204095961,0.8026376072251624,0.6714783362555261,1.606083251228218,0.998233026633055,0.4579946233245634,0.342818428067437,0.8466360478703797,1.020951180843669,0.1834551152813057,0.4305512077664487,1.180556857376568,0.7045752281984295,0.04985722956161637,0.07455387749563055,0.5875653227279859,0.852163179824627,-0.05907468770004951,-0.1894733459726858,0.4824093198971028,837.6923076923077,818.3516483516484,795.7875457875458,788.1318681318681,714.7985347985348,-0.144836,-0.022217,1.001953,6.205750,-5.420685,-0.710297,1,1,1,1,1,30.000000
2021-11-11 01:56:17.989,1.35929079388224,0.8382934368587406,0.3690716116255718,1.288823784178607,1.07179341526522,0.2993949021466004,0.1951826167983748,0.8378400836435278,0.6082966169513233,0.3013306623002243,0.1560896164658444,0.6403172398730134,0.6287114106491014,-0.05380035834487264,0.005279332499931246,0.7161902435457114,0.9426675558700682,-0.1431546043487456,-0.2789539323642615,0.5037322037916511,979.5238095238095,822.7838827838829,787.3260073260074,799.8168498168499,751.4652014652015,-0.183716,-0.062256,0.992737,2.639313,7.716064,4.127197,1,1,1,1,1,30.000000
2021-11-11 01:56:18.006,,,,,,,,,,,,,,,,,,,,,,,,,,,,,,,,,,,,,,/muse/elements/blink
2021-11-11 01:56:18.629,,,,,,,,,,,,,,,,,,,,,,,,,,,,,,,,,,,,,,/muse/elements/blink
2021-11-11 01:56:18.989,1.095265514309196,1.411151791444901,0.9446805980506813,0.7856317488787015,1.038244888301112,0.3556585557959419,0.2568643357691795,0.5657962785216454,0.5284560226649531,0.2938147642588383,0.3024657665022934,0.5008155496445569,0.5396138650461099,-0.03050391484122838,0.1493012533540129,0.6730667906570925,0.9469236809745062,-0.2412055830965865,0.1143123003051565,0.630677423998965,1102.417582417582,789.7435897435897,815.1282051282052,809.8901098901099,872.3443223443223,-0.267822,0.024109,0.982666,-0.157013,0.500946,8.374023,1,1,1,1,1,30.000000
2021-11-11 01:56:19.465,,,,,,,,,,,,,,,,,,,,,,,,,,,,,,,,,,,,,,/muse/elements/blink
2021-11-11 01:56:19.989,1.095265514309196,1.526887401803867,1.503428578127237,0.7856317488787015,1.038244888301112,0.5052841343585304,0.8414135843769571,0.5657962785216454,0.5284560226649531,0.3446139144486745,0.369298326000983,0.5008155496445569,0.5396138650461099,0.5305222672744557,0.2278017409297959,0.6730667906570925,0.9469236809745062,0.1579529051693265,0.1509171136761191,0.630677423998965,1023.040293040293,815.1282051282052,788.1318681318681,811.5018315018315,906.1904761904763,-0.290527,0.015381,0.963013,4.725342,-2.377625,-0.650482,1,1,1,1,1,30.000000
2021-11-11 01:56:20.441,,,,,,,,,,,,,,,,,,,,,,,,,,,,,,,,,,,,,,/muse/elements/blink
2021-11-11 01:56:20.989,1.615776254813495,1.474251064146199,1.532898665613955,0.7856317488787015,1.21831543301322,0.6563901308242164,0.8987678139854276,0.5657962785216454,1.012425163827784,0.5271614055897954,0.668603502571632,0.5008155496445569,0.9374679981198737,0.6164698367847118,0.3050589396738241,0.6730667906570925,0.958928010271848,0.2136072894652168,0.00749112420383997,0.630677423998965,1091.538461538462,839.3040293040293,758.7179487179487,771.6117216117216,789.3406593406594,-0.282898,0.015808,0.962402,5.069275,-4.635620,-1.510315,1,1,1,1,1,30.000000
2021-11-11 01:56:21.989,0.8053384149770938,1.161090542206617,1.340611661883677,1.456143933279717,0.3948706046118416,0.6914407429970132,0.8680551223114434,0.8135141424300081,0.5541861301026926,0.258671618805566,0.6926305612368533,0.506693617305215,0.6065058374106357,0.2248560555109079,0.2165577003082659,0.8599410121335568,0.7713659152157079,-0.06911031353707346,0.06897295032154148,0.3448439716666246,1054.065934065934,809.4871794871796,807.4725274725275,814.7252747252747,1059.304029304029,-0.227539,0.022461,0.983215,4.396362,-6.048737,-2.437439,1,1,1,1,1,30.000000
2021-11-11 01:56:22.796,,,,,,,,,,,,,,,,,,,,,,,,,,,,,,,,,,,,,,/muse/elements/blink
2021-11-11 01:56:22.991,1.055306449186789,1.037786354874687,0.82270311746587,1.421400588549855,0.7264159674666397,0.5974827766656611,0.5703469907686223,0.5432071748274415,0.7757974334577815,0.1339906139793522,0.1978573938232565,0.774741164076799,0.5699893446379611,0.1018757511546151,0.01041784087148187,0.870913955694932,0.6858527352623457,-0.2165811759744381,-0.1503689666425251,0.3086155065784199,1101.208791208791,801.4285714285714,797.3992673992674,796.996336996337,936.8131868131868,-0.235291,0.025635,0.971619,5.360870,-4.284210,-3.401947,1,1,1,1,1,30.000000
2021-11-11 01:56:23.396,,,,,,,,,,,,,,,,,,,,,,,,,,,,,,,,,,,,,,/muse/elements/blink
2021-11-11 01:56:23.396,,,,,,,,,,,,,,,,,,,,,,,,,,,,,,,,,,,,,,/muse/elements/jaw_clench
2021-11-11 01:56:23.927,,,,,,,,,,,,,,,,,,,,,,,,,,,,,,,,,,,,,,/muse/elements/blink
2021-11-11 01:56:23.989,1.143406847289774,0.9968125177237223,0.2207311100957441,1.119190662820799,0.8676177904039748,0.6888718188527879,0.4653618289216782,0.3949128421491958,0.7307178295386495,-0.04617640260792095,-0.1108796436809105,0.701903813878856,0.4314757777732396,-0.001448941770212947,0.0626543631040067,0.8560971021917821,0.577098006404417,-0.1227187967378277,-0.09728397682691034,0.2441389670085586,1131.831501831502,1001.684981684982,932.7838827838829,754.2857142857143,797.3992673992674,-0.200073,0.031372,0.985718,5.016937,-4.628143,-1.368256,1,1,1,1,1,30.000000
2021-11-11 01:56:24.437,,,,,,,,,,,,,,,,,,,,,,,,,,,,,,,,,,,,,,/muse/elements/blink
2021-11-11 01:56:25.002,1.143406847289774,1.196958175622058,0.2504443445534126,1.119190662820799,0.8676177904039748,0.9204567251865852,0.5548562085179725,0.3949128421491958,0.7307178295386495,-0.09094509847867095,-0.22705502306018,0.701903813878856,0.4314757777732396,-0.01032972560233177,0.191109553848877,0.8560971021917821,0.577098006404417,0.06200004532405372,-0.002936596074029734,0.2441389670085586,1083.882783882784,778.4615384615385,763.956043956044,803.040293040293,878.3882783882784,-0.209900,0.027344,0.984131,4.942169,-3.730927,-2.534637,1,1,1,1,1,30.000000
2021-11-11 01:56:25.127,,,,,,,,,,,,,,,,,,,,,,,,,,,,,,,,,,,,,,/muse/elements/blink
2021-11-11 01:56:25.631,,,,,,,,,,,,,,,,,,,,,,,,,,,,,,,,,,,,,,/muse/elements/blink
2021-11-11 01:56:25.936,,,,,,,,,,,,,,,,,,,,,,,,,,,,,,,,,,,,,,/muse/elements/jaw_clench
2021-11-11 01:56:25.989,1.143406847289774,1.196958175622058,0.655288621882776,0.9713376694467564,0.8676177904039748,0.9204567251865852,0.2700372349005231,0.659352259352737,0.7307178295386495,-0.09094509847867095,0.3398274342933166,0.8978430994183012,0.4314757777732396,-0.01032972560233177,0.7378849389986419,1.205974497383846,0.577098006404417,0.06200004532405372,0.8683956728854687,1.294890217369734,1127.399267399268,795.7875457875458,782.893772893773,834.8717948717949,942.8571428571429,-0.048889,0.000427,1.008301,0.822449,-10.923615,-2.011261,1,1,1,1,1,30.000000
2021-11-11 01:56:26.756,,,,,,,,,,,,,,,,,,,,,,,,,,,,,,,,,,,,,,/muse/elements/blink
2021-11-11 01:56:26.997,1.143406847289774,1.189445446312689,0.5925322637665199,0.7907670078018068,0.8676177904039748,0.2393771290118151,0.4207292121752452,0.644963005245571,0.7307178295386495,0.1669001730768099,0.4576607934479906,0.7212969808867784,0.4314757777732396,0.5670464721161546,0.5993326283959549,1.266012123328778,0.577098006404417,0.6539660941128518,0.8239354276120876,1.297895343025477,1002.087912087912,805.4578754578755,796.1904761904763,806.2637362637363,825.6043956043957,0.047180,-0.051819,0.993408,2.437439,-4.201965,-4.074860,1,1,1,1,1,30.000000
2021-11-11 01:56:27.989,1.143406847289774,0.7842561740488241,0.493985384184654,0.7907670078018068,0.8676177904039748,0.09764565016623114,0.003785143675492611,0.644963005245571,0.7307178295386495,0.2490977691997559,0.3632626389520141,0.7212969808867784,0.4314757777732396,0.2991603136724328,0.1490117912528347,1.266012123328778,0.577098006404417,0.05276806879930957,0.1160293610533007,1.297895343025477,910.6227106227107,821.1721611721612,809.8901098901099,797.8021978021978,865.4945054945056,-0.089539,-0.111389,0.991028,5.383301,-1.749573,-2.811279,1,1,1,1,1,30.000000
2021-11-11 01:56:28.260,,,,,,,,,,,,,,,,,,,,,,,,,,,,,,,,,,,,,,/muse/elements/blink
2021-11-11 01:56:28.994,1.319350714075425,0.1969658962493849,0.5212718530139451,1.499202225654757,1.166829305967449,-0.1078278866679773,-0.133292002125409,1.181192768256939,0.8361005351685561,0.231913566169042,0.145571299175512,0.943038813712813,0.5047147976277089,-0.0006030252238539536,-0.06526073111978031,0.4841685890457769,0.7003394235148048,-0.2788146653241107,-0.3286988455982328,0.4054947143633615,1007.728937728938,807.0695970695971,798.6080586080586,789.3406593406594,1038.351648351648,-0.067932,-0.099243,1.000977,5.061798,-4.889832,-2.205658,1,1,1,1,1,30.000000
2021-11-11 01:56:29.989,1.920850336869372,0.1115443078966407,0.2453415533449309,1.313185014833156,1.150923222603962,-0.1880882953963699,-0.2166102880034218,1.008081073175346,1.007938637792717,0.1638511906124633,0.2185337115698731,0.9501403952308598,0.595951386456697,-0.03333519263612003,0.02206548600390224,0.5739164033856585,0.686197710713532,-0.2840813830602532,-0.3796690280268608,0.4894320587695011,968.6446886446887,816.3369963369963,786.9230769230769,780.0732600732601,745.0183150183151,-0.064026,-0.104980,0.998657,4.747772,-5.046844,-1.727142,1,1,1,1,1,30.000000
2021-11-11 01:56:30.998,1.537625251313762,0.03640303800247961,0.05978389056516635,0.6373402812715115,0.5199308177378849,-0.4127053910580138,-0.2062994329112229,0.2392218570695564,0.6468979211381534,0.005007858460149609,0.1722294996954681,0.3202799153789527,0.6358759034592879,0.07046562059153612,0.08626049185958543,0.6619580135225267,0.7499615861276593,-0.3673709606874063,-0.1855500190196878,0.4586932504514454,963.0036630036631,819.1575091575091,804.2490842490843,821.5750915750916,893.2967032967033,-0.052917,-0.100098,1.010376,6.803894,-0.239258,0.889740,1,1,1,1,1,30.000000
2021-11-11 01:56:31.928,,,,,,,,,,,,,,,,,,,,,,,,,,,,,,,,,,,,,,/muse/elements/blink
2021-11-11 01:56:31.989,1.183232413744036,0.2430187596332647,0.6134944443893278,1.0030121431751,0.5699001842354197,-0.1588047644731077,-0.1916966613249825,0.4832666449367595,0.5200022325785533,0.05325328611316638,-0.1529402994366301,0.1710940325747712,0.4444259763285293,0.1040445202065031,0.1913084910191875,0.7067864540876664,0.6384690621549638,-0.3279037024255156,-0.01387347984295631,0.4591180991064512,579.0109890109891,867.9120879120879,777.2527472527473,798.2051282051282,475.4578754578754,-0.202759,-0.117004,0.966858,2.489777,5.263672,10.946045,1,1,1,1,1,30.000000
2021-11-11 01:56:32.989,1.183232413744036,0.3586052376776143,1.521695992705709,1.0030121431751,0.5699001842354197,-0.009840686596455414,0.7060939921718904,0.4832666449367595,0.5200022325785533,0.0220226652120236,0.5002273496526204,0.1710940325747712,0.4444259763285293,0.1738498885415347,0.323243049454913,0.7067864540876664,0.6384690621549638,-0.1970655495584177,0.2442323971010295,0.4591180991064512,644.2857142857143,804.6520146520147,785.3113553113553,761.941391941392,764.7619047619048,-0.257080,-0.107788,0.970642,4.830017,-3.760834,-1.906586,1,1,1,1,1,30.000000
2021-11-11 01:56:33.761,,,,,,,,,,,,,,,,,,,,,,,,,,,,,,,,,,,,,,/muse/elements/blink
2021-11-11 01:56:33.989,1.458617908732087,0.1448767829376749,0.8640819167467073,1.347247141944294,0.6078229130038927,0.03201888999199554,0.4440095639769853,0.9820474587773138,0.4921567661457958,-0.1679866393757499,0.3079156071380644,1.044983387829169,0.5705545343421735,0.05277201851872817,0.03627426734612738,0.6188477105889253,0.7396635526624125,-0.4723488660016201,-0.03347589765111891,0.3825614045973183,814.7252747252747,812.3076923076924,784.1025641025641,761.1355311355312,547.985347985348,-0.243774,-0.106934,0.975220,4.194489,-4.613190,-2.347717,1,1,1,1,1,30.000000
2021-11-11 01:56:34.990,1.075339600242991,0.1488995018465527,0.7386376124787061,1.594607243247759,0.6427127497303073,-0.1416833261413314,0.1793104355610111,1.210494409327896,0.5698493937241739,-0.1182857783722616,0.1452214161048252,0.9498624515847823,0.7266256493103757,0.04786725436047048,0.1317544522432082,0.5985762160808354,0.7532386796607616,-0.1667072990377571,-0.3173277300947155,0.3488213713562999,581.8315018315019,813.5164835164835,780.8791208791209,753.4798534798535,524.6153846153846,-0.206238,-0.098206,0.984192,8.740387,-3.013153,-9.166565,1,1,1,1,1,30.000000
2021-11-11 01:56:35.602,,,,,,,,,,,,,,,,,,,,,,,,,,,,,,,,,,,,,,/muse/elements/blink
2021-11-11 01:56:35.989,0.8480386685574038,1.501281932192905,1.512431051815909,1.408202782654309,0.4856722433318814,0.5630657175484252,0.4839209861789089,0.6481430426972367,0.5008981988890767,0.2722235689853162,0.2868673043589831,0.725789983462138,0.7004321141867069,0.1571922226041374,0.2585852994322924,0.7586508640215761,0.7838612037437119,-0.07995057480991989,-0.1135297252688615,0.5338206148540433,800.6227106227107,809.4871794871796,804.6520146520147,755.8974358974359,728.0952380952381,-0.201721,-0.089172,0.981201,5.353394,-7.588959,-3.102875,1,1,1,1,1,30.000000
2021-11-11 01:56:36.989,1.718751958293614,1.211711005997216,1.07827791873558,1.22676812896705,0.6529630461245197,0.3795876172498864,0.2458293879784421,0.7195976773454786,0.5569881686907523,0.084468450177066,0.3006256656954384,0.7470872583762747,0.5986414019271584,0.1450729161033527,0.1222654702554153,0.7344289311359786,0.7421564553919389,-0.0456233943505398,0.1708921903454051,0.3110901017308556,929.96336996337,813.919413919414,797.3992673992674,791.7582417582418,665.2380952380953,-0.178101,-0.089417,0.989441,4.538422,-4.553375,-1.689758,1,1,1,1,1,30.000000
2021-11-11 01:56:36.995,,,,,,,,,,,,,,,,,,,,,,,,,,,,,,,,,,,,,,/muse/elements/blink
2021-11-11 01:56:37.997,1.734910769393212,0.7170599494188657,-0.2722678987610674,1.533947213054568,0.9532532597561182,0.1182032408201127,-0.08517759105569432,0.939600421714471,0.8638749934991481,-0.003053563861728986,0.236917123875468,0.8834690111795817,0.5451279928675563,0.03321290182633582,-0.008078141792369568,0.6810682129622043,0.7442240607611349,-0.1336606900724764,0.0726129696655485,0.457483493788961,691.025641025641,809.8901098901099,796.5934065934066,769.5970695970697,586.2637362637363,-0.167480,-0.089783,0.989197,4.037476,-5.405731,-1.196289,1,1,1,1,1,30.000000
2021-11-11 01:56:38.452,,,,,,,,,,,,,,,,,,,,,,,,,,,,,,,,,,,,,,/muse/elements/blink
2021-11-11 01:56:38.989,1.353648316698528,1.323607706176351,0.3850154988478726,1.408275017697378,0.3462070521924652,0.215173427325405,0.1300825787240443,0.4828634002073305,0.6133215122994408,0.000421990407995615,0.2069861752495545,0.6601308457757631,0.7212441017292188,0.1149084648663562,0.1819186326397222,0.6934378170152158,0.755018511757151,-0.08887742027771589,0.06302222732954334,0.4961865644018689,816.7399267399268,799.4139194139194,808.2783882783883,804.6520146520147,755.8974358974359,-0.171387,-0.080627,0.990234,5.487976,-3.977661,-1.824341,1,1,1,1,1,30.000000
2021-11-11 01:56:39.949,,,,,,,,,,,,,,,,,,,,,,,,,,,,,,,,,,,,,,/muse/elements/blink
2021-11-11 01:56:39.989,1.339388588992979,1.446705595378004,0.7861577834713821,1.156449936408506,0.9698044552276323,0.2185741848231301,0.2663501772732446,0.7765985594412917,0.9172659580319066,-0.03293565717556532,0.3141913483242113,0.6668380130673387,0.5649035155998785,0.1932333533690886,0.1939219023563631,0.5952190589507526,0.796049387556352,-0.2655180671827417,-0.05112094486712452,0.3817288312483895,1007.326007326007,812.3076923076924,785.7142857142858,840.5128205128206,724.4688644688645,-0.080811,-0.093811,0.996704,7.618866,-19.768677,3.865509,1,1,1,1,1,30.000000
2021-11-11 01:56:40.795,,,,,,,,,,,,,,,,,,,,,,,,,,,,,,,,,,,,,,/muse/elements/blink
2021-11-11 01:56:40.795,,,,,,,,,,,,,,,,,,,,,,,,,,,,,,,,,,,,,,/muse/elements/jaw_clench
2021-11-11 01:56:40.989,1.363452725192227,0.9717735217192317,1.143198260020891,1.054847806090079,1.016495537271278,0.4968071263059275,0.6814883102536553,0.813855655006027,0.9144894132226682,0.2588154438555142,0.4394333022378979,0.6645711422731656,0.5811100494290692,0.01934402802441965,0.03254366064234229,0.6090873799552095,0.8257708703714787,-0.5396672792313366,-0.3450127424336056,0.3641339824452198,844.1391941391942,519.3772893772893,631.3919413919414,825.6043956043957,635.4212454212454,-0.075073,-0.066345,1.014771,4.493561,-4.403839,-2.078552,1,1,1,1,1,30.000000
2021-11-11 01:56:41.408,,,,,,,,,,,,,,,,,,,,,,,,,,,,,,,,,,,,,,/muse/elements/blink
2021-11-11 01:56:41.989,1.363452725192227,1.225212052007592,1.279766906110505,1.054847806090079,1.016495537271278,0.8181638941420456,0.9092903684825978,0.813855655006027,0.9144894132226682,0.2491137234057735,0.2865135650692374,0.6645711422731656,0.5811100494290692,-0.0438884945593758,0.04585082404007618,0.6090873799552095,0.8257708703714787,-0.5274603942244207,-0.5362284814724132,0.3641339824452198,788.9377289377289,821.978021978022,792.1611721611722,785.3113553113553,663.6263736263736,0.048828,-0.089844,1.001160,4.732819,-6.863708,-0.388794,1,1,1,1,1,30.000000
2021-11-11 01:56:42.839,,,,,,,,,,,,,,,,,,,,,,,,,,,,,,,,,,,,,,/muse/elements/blink
2021-11-11 01:56:42.989,1.363452725192227,0.3924348503983491,0.6467987878296646,1.054847806090079,1.016495537271278,0.2001954976169619,0.413329692708261,0.813855655006027,0.9144894132226682,0.5391127853798561,0.5185587358366721,0.6645711422731656,0.5811100494290692,0.1909732670345196,0.2040718526599903,0.6090873799552095,0.8257708703714787,-0.421605399981664,-0.0390833787222586,0.3641339824452198,898.5347985347986,811.9047619047619,777.6556776556777,791.3553113553114,609.2307692307693,0.058899,-0.093811,0.999084,4.530945,-4.987030,-1.929016,1,2,1,1,2,30.000000
2021-11-11 01:56:43.988,1.044783916406234,0.201492549969671,0.9409199798282823,0.7326779690008708,0.6207435963312449,0.1320996283478302,0.4175399563897122,0.8067877012997825,0.5336652744231367,0.598249563147169,0.5315614078570537,0.6844776164934288,0.7296392760100406,0.04844079828214096,-0.04757244296950733,0.4018099268687931,0.7445677480115194,-0.387468059717417,-0.2953848470556434,0.2939918975452511,610.0366300366301,805.0549450549451,788.1318681318681,753.0769230769231,597.1428571428571,0.071045,-0.093994,1.005798,3.775787,-7.416992,-1.480408,1,1,1,1,1,30.000000
2021-11-11 01:56:44.740,,,,,,,,,,,,,,,,,,,,,,,,,,,,,,,,,,,,,,/muse/elements/blink
2021-11-11 01:56:44.989,1.104382585073527,0.1615974690289923,0.334119331094768,0.9837310297334649,0.7647984041239041,0.1082379872891808,0.03962508342046466,0.9214145866114636,0.9178196013610648,0.3442924772915463,0.2647612282817798,0.6900366633059506,0.6197777704930408,0.005145242512504118,-0.0325432520787001,0.3462421820304344,0.8770268785935603,-0.4396584118997174,-0.5429940662256086,0.2085366137406104,709.9633699633699,816.3369963369963,786.1172161172161,773.2234432234433,665.6410256410256,0.007935,-0.086121,1.006409,4.575806,-0.441132,-2.699127,1,1,1,1,1,30.000000
2021-11-11 01:56:46.000,0.9362874694876849,0.709677595627093,0.3905351507440216,1.03448848859734,0.3774868137267605,0.1789740013422443,0.02555470877558923,0.6578844721966787,0.9214353614482468,0.3013882049520595,0.2439003438491879,-0.005101056444727682,0.6875706129487996,0.01002331873762988,-0.006313987825896858,0.4266773301403491,0.7520633362780217,-0.3799357795313855,-0.5078614089792682,0.2579517053674792,528.2417582417582,811.0989010989011,788.5347985347986,740.989010989011,601.1721611721612,-0.034851,-0.082581,1.008545,5.510406,-2.945862,-1.570129,1,1,1,1,1,30.000000
2021-11-11 01:56:46.382,,,,,,,,,,,,,,,,,,,,,,,,,,,,,,,,,,,,,,/muse/elements/jaw_clench
2021-11-11 01:56:46.567,,,,,,,,,,,,,,,,,,,,,,,,,,,,,,,,,,,,,,/muse/elements/blink
2021-11-11 01:56:46.758,,,,,,,,,,,,,,,,,,,,,,,,,,,,,,,,,,,,,,/muse/elements/blink
2021-11-11 01:56:46.988,0.4021287953492506,0.467860190814004,0.3293455491635854,1.131500166122998,0.008551542875732402,-0.06140444072035704,-0.1416166758557427,0.5173448585675446,0.8427107620858151,0.2716563485112942,0.2677980877102714,0.4364905799837665,0.7234634762895445,-0.006047597994582632,0.2668984515837937,0.5686943735630517,0.7231158684532454,-0.293709761679269,-0.3705726425666629,0.298326646777418,773.6263736263736,722.4542124542124,790.5494505494506,816.7399267399268,669.6703296703297,-0.218384,0.122314,0.979736,11.334839,-5.016937,-12.329254,1,1,1,1,1,30.000000
2021-11-11 01:56:47.361,,,,,,,,,,,,,,,,,,,,,,,,,,,,,,,,,,,,,,/muse/elements/blink
2021-11-11 01:56:47.495,,,,,,,,,,,,,,,,,,,,,,,,,,,,,,,,,,,,,,/muse/elements/jaw_clench
2021-11-11 01:56:47.989,0.2683968760998874,0.2834650867805706,0.5181240961291629,1.220123387637625,0.08162855310109281,-0.1755131846947282,-0.298954881778107,0.5366671796203768,0.8424406490938626,0.1591594062120547,0.2069776784602955,0.4364905799837665,0.7865387089515861,0.0759803043937376,0.3761382732023356,0.6165730019977089,0.7365439319047096,-0.2814870293772368,-0.3482146512917148,0.2702736446617406,527.4358974358975,832.4542124542124,786.1172161172161,761.5384615384615,593.1135531135532,-0.266174,0.236511,0.944458,3.185120,-2.841187,3.641205,1,1,1,1,1,30.000000
2021-11-11 01:56:48.989,1.431597454545666,1.562574214221861,1.053190485706196,0.8978893185660409,1.124657506549028,0.8841987428400403,0.7935923072309281,0.8719344683258754,0.7219869954726389,0.5836128012158934,0.5019466021381362,0.597378760074519,0.8166171491248237,0.4462795427193385,0.3602141618259615,0.6812494319499988,0.9414871394414372,0.03526788996992006,0.1626613573866676,0.5002457720149636,544.7619047619048,819.1575091575091,786.1172161172161,759.5238095238095,658.3882783882784,-0.218079,0.125732,0.986328,-7.020721,-2.960815,9.772186,1,1,1,1,1,30.000000
2021-11-11 01:56:49.989,1.520906578032412,1.368781050013915,1.270587348578959,1.416229496066989,1.02034718550231,0.8136951550309059,0.9016157414626076,0.9443517937272875,0.7971410495300825,0.7125872938559817,0.4913875601478926,0.7064184580324163,0.7136965926976087,0.1833519998222047,0.1798916178581534,0.6824340163329944,1.023848051179875,0.06856121705780666,0.1162191995010381,0.6626826669520205,413.4065934065934,820.7692307692308,783.2967032967033,751.0622710622711,587.8754578754579,-0.267517,0.078308,0.966370,3.072968,-6.631927,-3.491669,1,1,1,1,1,30.000000
2021-11-11 01:56:50.988,1.550168382120383,1.743000813629212,1.630586577426538,1.359715054961068,0.9463469369287503,1.091708923934256,0.9867384178690608,0.7823120982996166,0.7187454600451857,1.126953549617329,0.4976668851220999,0.5801940064334328,0.7069865008548127,0.4449394278709529,0.09382652182168361,0.7675657711286896,1.09289387423046,0.1499266743261324,0.09751536267101409,0.7823639640089093,466.5934065934066,807.4725274725275,805.4578754578755,760.3296703296703,612.8571428571429,-0.234375,0.067505,0.982727,4.575806,-5.570221,-0.732727,1,1,1,1,1,30.000000
2021-11-11 01:56:51.989,1.076488766090995,1.234421375201957,1.037546192942299,1.216591742789108,0.7670570317038133,0.7188127661581459,0.4147001621343489,0.3338342201553089,0.763631695309216,0.4550339236594318,0.4364082679293739,0.6462700447907413,0.7043133599805661,0.05365718494901295,0.06480960884954126,0.7487876123205535,0.9449633840941685,-0.05582393171539633,-0.221655102021909,0.5844785166226689,457.7289377289378,801.4285714285714,787.3260073260074,740.989010989011,537.1062271062272,-0.210449,0.074524,0.977478,5.458069,-4.897308,-2.123413,1,1,1,1,1,30.000000
2021-11-11 01:56:52.988,1.028602439749411,1.063744995173644,1.366494986960931,0.9527946586518421,0.7461316048002463,0.6813469738414201,0.164235245316103,0.4078942065747114,0.9012966014159001,0.5186494147063694,0.4495885850550761,0.6486455947910522,0.7030794270899117,0.2347596826359066,0.3443795055543817,0.7101703646844602,1.013943764022511,0.03810391939980481,0.118727012965583,0.40751766048919,635.4212454212454,786.5201465201466,823.1868131868132,776.8498168498169,695.4578754578755,-0.268982,0.138794,0.948425,6.818848,-3.633728,-7.559052,1,1,1,1,1,30.000000
2021-11-11 01:56:53.996,1.153397298994679,1.5868326673303,1.709679055817552,1.028603851304574,0.8516107681047314,1.007737731824338,0.4268829844040568,0.7225313877580127,0.8390872384302854,0.581052874577291,0.2150022825894257,0.4690781989960828,0.6221241708090386,0.5189704378473932,0.4417122319326268,0.6821072819021345,1.038559395537352,0.3797310789787112,0.3611337236339448,0.5739631715758639,639.4505494505495,786.1172161172161,809.4871794871796,788.1318681318681,714.3956043956044,-0.309021,0.118835,0.921143,3.267365,-21.750031,49.675903,1,1,1,1,1,30.000000
2021-11-11 01:56:54.989,1.495393106557842,1.241205319561785,1.393688345082092,1.563171876008462,0.9086744984240249,0.5317557616746608,0.4374507376922724,0.8571585178067821,1.094788539119686,0.4621670573049875,0.2216697339344496,0.9010901304165374,1.279348114103457,0.2110269236836567,0.2191862723919475,0.6283553819354891,1.093789482473757,0.07198177641075158,0.113595331908711,0.5648381191401207,549.1941391941392,800.6227106227107,802.6373626373627,790.1465201465202,555.6410256410256,0.077637,0.064331,1.050354,4.792633,-4.717865,-7.416992,1,1,1,1,1,30.000000
2021-11-11 01:56:55.989,1.547073910663549,1.117386757084299,1.099178956397797,1.332196680918816,0.8808349213667928,0.3446111028643781,0.3169524617239871,0.6904980204094537,1.038649754106412,0.3726139770772443,0.03129752408920038,0.9602686754929561,1.291516197651492,0.1424092412997236,0.1356149782843529,0.786942818542085,1.11161528538138,-0.3411272945986175,-0.2672193921954686,0.6181692657616215,723.6630036630037,786.1172161172161,786.9230769230769,758.3150183150184,868.7179487179487,0.128601,0.059509,0.987366,4.972076,-9.764709,0.426178,1,1,1,1,1,30.000000
2021-11-11 01:56:56.115,,,,,,,,,,,,,,,,,,,,,,,,,,,,,,,,,,,,,,/muse/elements/blink
2021-11-11 01:56:56.988,1.547073910663549,0.709482503288949,0.6603020197340429,0.7929985202943624,0.8808349213667928,0.4080229064323463,0.6162051395059299,0.2836885533345816,1.038649754106412,0.3090088355935586,0.05931570991567016,0.6510932365508822,1.291516197651492,0.216333540323311,0.1003511150254696,0.8080700332957284,1.11161528538138,-0.3569109865468737,-0.2624386880950338,0.5889420477195849,636.2271062271062,801.025641025641,790.1465201465202,756.7032967032967,766.7765567765568,0.125488,0.067627,1.001831,4.441223,-4.553375,-0.201874,1,1,1,1,1,30.000000
2021-11-11 01:56:57.989,0.5209513760098368,-0.2108932346209542,0.2359766296800957,1.093171574857129,0.6415258962785109,-0.2105805410050949,0.01374842831502413,0.6332452455120434,0.855163740999772,-0.03325876641491644,0.158970764018091,0.8419686310984548,0.9950261510964346,0.06470697906334288,0.005613753481240181,0.6103597846576879,0.8392713900294483,-0.5110319334296803,-0.3160917669705877,0.1438433280658023,597.1428571428571,790.5494505494506,783.6996336996338,736.959706959707,740.989010989011,0.104126,0.115906,0.993469,10.116119,-4.904785,-2.811279,1,1,1,1,1,30.000000
2021-11-11 01:56:58.988,0.4585343843308179,0.695614609369939,0.2724721145073297,0.6371407177236048,0.5910279852615614,-0.330463281098396,-0.1412269379859598,0.4632819990563648,0.9211865156836855,0.2064396125367904,0.2253743923358039,0.5702551763125245,1.014313477962151,0.08305540361627288,0.164977567662526,0.5388030410910803,1.031197683583286,-0.3610009042058437,-0.2131181362491251,0.1932263411071297,574.1758241758242,797.3992673992674,815.934065934066,755.4945054945055,674.5054945054945,0.093262,0.114380,1.014465,3.678589,-2.489777,-0.530853,1,1,1,1,1,30.000000
2021-11-11 01:56:59.883,,,,,,,,,,,,,,,,,,,,,,,,,,,,,,,,,,,,,,/muse/elements/blink
2021-11-11 01:56:59.988,0.9208137384882527,1.186168286187313,0.7223093561280599,1.0454856924152,0.5073576654139436,-0.1890241228870025,-0.1186709802523331,0.609796883024021,1.131267959632843,0.1767220737081432,0.1580754486027428,0.7465725544774662,0.9512117367523816,0.1398655703208466,0.1899185177108547,0.5293027092874963,1.05016799552244,-0.1903496443963946,0.06046294675985602,0.19824350180809,732.5274725274726,797.3992673992674,799.8168498168499,767.985347985348,782.893772893773,0.019043,0.190857,0.994995,2.355194,-3.686066,-23.350067,1,1,1,1,1,30.000000
2021-11-11 01:57:00.985,,,,,,,,,,,,,,,,,,,,,,,,,,,,,,,,,,,,,,/muse/elements/blink
2021-11-11 01:57:00.995,1.147375552714278,1.85864139830689,1.329404075921987,1.565880075811698,0.1472506667383118,1.198477735351273,0.7402941636717268,1.304985987817278,1.06872088672776,1.074885148915298,0.584907732438552,1.119948689002476,0.9833999907828103,0.5410642259999654,0.2090481950602562,0.7321964089134383,1.014497492165343,0.3867936879774992,0.100545350215393,0.5445656522834026,1097.985347985348,818.3516483516484,802.2344322344322,837.6923076923077,822.3809523809524,-0.028015,0.078674,0.994629,-3.192596,1.943970,7.461853,1,1,1,1,1,30.000000
2021-11-11 01:57:01.872,,,,,,,,,,,,,,,,,,,,,,,,,,,,,,,,,,,,,,/muse/elements/jaw_clench
2021-11-11 01:57:01.988,1.147375552714278,1.686955983261041,1.372697439219535,1.807908682469256,0.1472506667383118,1.210727553010352,0.7904501382237706,1.569171649656953,1.06872088672776,1.181426900214779,0.6792136154801407,1.119948689002476,0.9833999907828103,0.5286350257128588,0.4288783915903348,0.843353978621069,1.014497492165343,0.5491012912240192,0.4453559623190388,0.7502074263913994,726.4835164835165,1032.710622710623,770,778.0586080586081,997.6556776556777,-0.110779,0.100159,0.968323,-12.538605,-2.302856,18.131256,1,1,1,1,1,30.000000
2021-11-11 01:57:02.988,1.147375552714278,1.232264179024464,1.625710595552236,1.807908682469256,0.1472506667383118,0.1517096978494782,0.8388126587740832,1.569171649656953,1.06872088672776,0.250786464972325,0.6509536922100874,1.119948689002476,0.9833999907828103,0.1627082760674844,0.7644065219074261,0.843353978621069,1.014497492165343,-0.1891893076755992,0.6518952352367163,0.7502074263913994,3.626373626373626,810.6959706959707,780.8791208791209,813.1135531135532,878.7912087912089,-0.260498,-0.023865,0.979065,2.220612,10.026398,12.104950,1,1,1,1,1,30.000000
2021-11-11 01:57:03.988,1.147375552714278,1.475273940554962,1.733889785603666,1.917813328965156,0.1472506667383118,0.3532016965891833,0.8497957489489683,1.196064717513495,1.06872088672776,-0.01822150424660566,0.6977916845035922,0.944182328085625,0.9833999907828103,0.2299158355105156,0.3904941214144753,0.9522534227106073,1.014497492165343,-0.3496029539547681,0.3927595718409409,0.6959876826490595,540.7326007326008,808.6813186813187,790.952380952381,836.4835164835165,846.959706959707,-0.300720,0.044189,0.965637,17.817230,-25.466003,-20.374298,1,4,1,1,1,30.000000
2021-11-11 01:57:04.988,1.147375552714278,1.421940848102421,1.310515452838513,1.899982009158906,0.1472506667383118,0.3587614700292843,0.5040655304422672,1.244036280974235,1.06872088672776,0.1882660123846203,0.531960818542084,0.9359911531949032,0.9833999907828103,0.2613892562166132,0.1632388255232013,0.9909847726142846,1.014497492165343,-0.2552233624257077,-0.2125887821675925,0.714262234438053,655.1648351648352,831.2454212454213,801.4285714285714,670.0732600732601,992.014652014652,0.243652,0.093323,0.976746,5.084229,-7.626343,0.545807,1,2,1,1,1,30.000000
2021-11-11 01:57:05.787,,,,,,,,,,,,,,,,,,,,,,,,,,,,,,,,,,,,,,/muse/elements/blink
2021-11-11 01:57:05.988,1.147375552714278,0.9527449950338556,0.02655351703924845,1.899982009158906,0.1472506667383118,0.3295863590640711,0.06240621847073474,1.244036280974235,1.06872088672776,0.292112541815139,0.3006298825019865,0.9359911531949032,0.9833999907828103,0.001991793151161543,0.2198467103795509,0.9909847726142846,1.014497492165343,-0.1813772133187793,-0.2287520730114691,0.714262234438053,1257.142857142857,806.6666666666667,799.0109890109891,796.1904761904763,833.6630036630037,0.198669,0.044250,0.999573,2.661743,-3.117828,1.824341,1,2,1,1,1,30.000000
2021-11-11 01:57:06.764,,,,,,,,,,,,,,,,,,,,,,,,,,,,,,,,,,,,,,/muse/elements/blink
2021-11-11 01:57:06.999,1.147375552714278,1.058065448517074,0.3427189708597178,1.899982009158906,0.1472506667383118,0.3787151000282108,0.2565712992091894,1.244036280974235,1.06872088672776,0.4809793480118204,0.3150638512722275,0.9359911531949032,0.9833999907828103,0.06594975223702985,0.1419396481162958,0.9909847726142846,1.014497492165343,-0.1488723784463694,-0.05575590581695011,0.714262234438053,1011.355311355311,813.1135531135532,794.1758241758242,814.7252747252747,799.8168498168499,-0.192139,-0.143311,0.982666,-0.628052,2.781372,15.185394,1,2,1,1,2,30.000000
2021-11-11 01:57:08.004,1.147375552714278,0.9335310120544903,0.8495281630696065,1.899982009158906,0.1472506667383118,0.3213441011072308,0.8240747586307384,1.244036280974235,1.06872088672776,0.5224748132493469,0.5031280152571115,0.9359911531949032,0.9833999907828103,0.01950729879630403,0.2558084068925117,0.9909847726142846,1.014497492165343,-0.09421639548147376,0.03564583989356028,0.714262234438053,1047.619047619048,805.0549450549451,781.6849816849817,806.6666666666667,840.5128205128206,-0.137207,-0.048340,1.036133,-2.826233,-12.314301,1.069183,1,2,1,1,2,30.000000
2021-11-11 01:57:08.907,,,,,,,,,,,,,,,,,,,,,,,,,,,,,,,,,,,,,,/muse/elements/blink
2021-11-11 01:57:08.988,1.147375552714278,1.072835922227655,0.9586399547262409,1.29295311443981,0.1472506667383118,0.4280144909490621,0.5996354202212975,0.4781700800686276,1.06872088672776,0.3655600795830785,0.4274267303654766,1.145380842399485,0.9833999907828103,0.1333046881742217,0.4564469745169876,0.8716629061987419,1.014497492165343,0.05133077374201264,0.350333447971687,0.5452882782543251,809.0842490842491,907.8021978021978,862.6739926739926,817.948717948718,803.040293040293,-0.202026,-0.064758,0.936279,8.351593,-11.095581,-1.943970,1,1,1,1,1,30.000000
2021-11-11 01:57:09.090,,,,,,,,,,,,,,,,,,,,,,,,,,,,,,,,,,,,,,/muse/elements/jaw_clench
2021-11-11 01:57:09.204,,,,,,,,,,,,,,,,,,,,,,,,,,,,,,,,,,,,,,/muse/elements/blink
2021-11-11 01:57:09.989,1.147375552714278,0.963751345404778,1.364333174975962,1.156127724759818,0.1472506667383118,0.2228351793209789,0.4882617820248876,0.6031398738134079,1.06872088672776,0.2650034596518622,0.2991670050658174,0.8647739206272884,0.9833999907828103,0.3394714779780902,0.6599632652739383,0.8214370712655482,1.014497492165343,0.2910282175370506,0.5759511876246858,0.6663414613072999,969.8534798534798,809.8901098901099,823.5897435897436,660,972.2710622710623,-0.298706,-0.030701,0.990051,3.476715,0.628052,3.282318,1,1,1,1,1,30.000000
2021-11-11 01:57:10.133,,,,,,,,,,,,,,,,,,,,,,,,,,,,,,,,,,,,,,/muse/elements/blink
2021-11-11 01:57:10.133,,,,,,,,,,,,,,,,,,,,,,,,,,,,,,,,,,,,,,/muse/elements/jaw_clench
2021-11-11 01:57:10.656,,,,,,,,,,,,,,,,,,,,,,,,,,,,,,,,,,,,,,/muse/elements/jaw_clench
2021-11-11 01:57:10.988,1.147375552714278,0.963751345404778,1.444716844838046,1.156127724759818,0.1472506667383118,0.2228351793209789,0.3105489294439173,0.6031398738134079,1.06872088672776,0.2650034596518622,0.2794585066781975,0.8647739206272884,0.9833999907828103,0.3394714779780902,0.7968575731804198,0.8214370712655482,1.014497492165343,0.2910282175370506,0.697315581585549,0.6663414613072999,1185.421245421245,1177.765567765568,780.8791208791209,833.6630036630037,670.4761904761905,-0.297180,-0.011963,0.964172,14.706879,-4.949646,-38.969116,1,4,1,1,1,30.000000
2021-11-11 01:57:11.249,,,,,,,,,,,,,,,,,,,,,,,,,,,,,,,,,,,,,,/muse/elements/jaw_clench
2021-11-11 01:57:11.958,,,,,,,,,,,,,,,,,,,,,,,,,,,,,,,,,,,,,,/muse/elements/blink
2021-11-11 01:57:11.991,1.147375552714278,0.963751345404778,1.366557944236452,1.156127724759818,0.1472506667383118,0.2228351793209789,0.808298084191185,0.6031398738134079,1.06872088672776,0.2650034596518622,0.7853199497389123,0.8647739206272884,0.9833999907828103,0.3394714779780902,0.9295660632318601,0.8214370712655482,1.014497492165343,0.2910282175370506,0.9399780846619628,0.6663414613072999,1003.699633699634,843.7362637362637,795.3846153846154,849.3772893772895,753.0769230769231,-0.423706,-0.116821,0.909180,4.329071,-2.579498,6.108551,1,2,1,1,2,30.000000
2021-11-11 01:57:12.988,1.147375552714278,1.978421726435402,1.710986920660882,1.156127724759818,0.1472506667383118,0.7733927547424043,0.826235840214089,0.6031398738134079,1.06872088672776,0.5103117220195906,0.7272235373800254,0.8647739206272884,0.9833999907828103,0.473338005349931,0.7200703019176312,0.8214370712655482,1.014497492165343,0.341290387819865,0.677083010527346,0.6663414613072999,987.5824175824176,807.4725274725275,794.5787545787546,786.9230769230769,906.5934065934066,-0.389343,-0.110596,0.922852,3.708496,-6.265564,-4.336548,1,2,1,1,2,30.000000
2021-11-11 01:57:13.988,1.147375552714278,1.639530134668526,1.137835402142144,1.479811179721392,0.1472506667383118,0.8615561919485621,0.3814746468576126,1.091690760212465,1.06872088672776,0.4314149439807798,0.345368452313616,1.152319397169431,0.9833999907828103,0.2220405975312267,0.3352883917801738,0.6241651659640683,1.014497492165343,-0.1763235411430105,-0.03093341464612206,0.5291043234973031,897.7289377289378,798.2051282051282,797.8021978021978,806.6666666666667,874.3589743589744,-0.380798,-0.122375,0.929077,4.321594,-4.658051,-1.517792,1,1,1,1,1,30.000000
2021-11-11 01:57:14.988,1.402403736346455,1.273985403930613,0.508588010059166,1.470778407588382,1.067923038625743,0.7666704590816013,0.1690736009343644,1.102151453439767,1.253701969619438,0.2070152020393216,0.102571854382785,1.205815323144116,0.5851153275214874,0.1311264484756361,0.1041234192784539,0.5604592295528928,0.6142046165064936,-0.3443028962908352,-0.1297422809075839,0.4727742138052108,823.992673992674,838.901098901099,814.3223443223443,747.032967032967,748.6446886446887,-0.336243,-0.107971,0.949341,5.435638,-9.017029,0.792542,1,1,1,1,1,30.000000
2021-11-11 01:57:15.988,0.6917337529358417,1.277005014266397,0.6066638955766629,1.396309690736286,0.7853794058674536,0.4118208765367796,0.2913362108221377,0.9601814590378343,0.8701781395513351,0.1347683335579328,0.1703635294423501,1.01406918268164,0.5699541821660636,0.1397592918849914,0.206895275825449,0.6972247490150912,0.538339742608576,-0.1792540036110997,0.100368635447142,0.5642331078178631,973.4798534798535,805.8608058608058,810.6959706959707,811.5018315018315,879.1941391941392,-0.351135,-0.078247,0.943726,3.955231,-3.461761,-1.016846,1,1,1,1,1,30.000000
2021-11-11 01:57:16.988,1.398393197777314,1.410649972700373,0.8903950580756552,1.586918183886507,0.6243311348622564,0.6387755587166236,0.1104857014379328,0.8538329217532622,0.4811241341219291,0.2519612899302537,0.05463359224360771,0.8631978292531793,0.6246389617675719,0.08953757400352311,0.3104640381419418,0.8744520853582272,0.4717207664906699,-0.19984296580384,0.03038298591054937,0.4372833225660139,905.7875457875458,791.7582417582418,799.4139194139194,788.5347985347986,773.6263736263736,-0.319031,-0.073242,0.951965,5.779572,-3.379517,0.478516,1,1,1,1,1,30.000000
2021-11-11 01:57:17.643,,,,,,,,,,,,,,,,,,,,,,,,,,,,,,,,,,,,,,/muse/elements/jaw_clench
2021-11-11 01:57:17.987,1.416268770195748,1.810173933333972,1.129572030053232,1.555890315600998,0.6221786522586571,0.9079271580032859,0.4924313545769043,0.818403265069188,0.4578405663745039,0.4060333220568536,0.2424891680663972,0.7188605992700268,0.6479943966585413,0.08753035250948635,0.2596516981993654,0.828745719306775,0.4654351203681296,-0.3450503895878773,-0.218513506282656,0.1019649788806465,1004.505494505495,1011.355311355311,873.956043956044,757.1062271062272,736.5567765567765,-0.317749,-0.034546,0.949463,5.914154,-6.489868,1.203766,1,1,1,1,1,30.000000
2021-11-11 01:57:18.330,,,,,,,,,,,,,,,,,,,,,,,,,,,,,,,,,,,,,,/muse/elements/blink
2021-11-11 01:57:18.946,,,,,,,,,,,,,,,,,,,,,,,,,,,,,,,,,,,,,,/muse/elements/blink
2021-11-11 01:57:18.988,1.416268770195748,1.577851467883526,1.037556513637753,1.555890315600998,0.6221786522586571,0.6692268391898959,0.6811937678817734,0.818403265069188,0.4578405663745039,0.338272764773318,0.2345190224153122,0.7188605992700268,0.6479943966585413,0.1498900846158893,0.2188742957717332,0.828745719306775,0.4654351203681296,-0.3695158005439966,-0.3246198520231379,0.1019649788806465,608.4249084249085,728.0952380952381,745.4212454212454,803.8461538461539,569.7435897435897,-0.252136,-0.022766,0.982239,4.201965,-2.743988,-1.704712,1,1,4,1,1,30.000000
2021-11-11 01:57:19.654,,,,,,,,,,,,,,,,,,,,,,,,,,,,,,,,,,,,,,/muse/elements/blink
2021-11-11 01:57:19.988,1.416268770195748,1.577851467883526,1.037556513637753,1.555890315600998,0.6221786522586571,0.6692268391898959,0.6811937678817734,0.818403265069188,0.4578405663745039,0.338272764773318,0.2345190224153122,0.7188605992700268,0.6479943966585413,0.1498900846158893,0.2188742957717332,0.828745719306775,0.4654351203681296,-0.3695158005439966,-0.3246198520231379,0.1019649788806465,550.8058608058608,779.2673992673992,774.8351648351648,773.6263736263736,558.4615384615385,0.168396,-0.026306,0.989441,11.955414,-38.670044,2.011261,1,2,1,1,2,30.000000
2021-11-11 01:57:20.988,1.416268770195748,1.406869300807036,0.8368669536755118,0.9872710729650928,0.6221786522586571,0.2635201101833857,0.1367968058888469,0.8162717977603673,0.4578405663745039,0.2797850917689694,0.5242209883664044,0.8598341013435284,0.6479943966585413,0.131749370424387,0.05474684298565192,1.1599774495078,0.4654351203681296,-0.3556819650778779,-0.2288271227025502,0.7850951555477578,487.5457875457876,786.9230769230769,788.5347985347986,758.3150183150184,645.4945054945055,0.349609,0.005615,0.944946,6.676788,0.239258,-1.248627,1,2,1,1,2,30.000000
2021-11-11 01:57:21.105,,,,,,,,,,,,,,,,,,,,,,,,,,,,,,,,,,,,,,/muse/elements/jaw_clench
2021-11-11 01:57:21.705,,,,,,,,,,,,,,,,,,,,,,,,,,,,,,,,,,,,,,/muse/elements/jaw_clench
2021-11-11 01:57:21.988,1.416268770195748,0.6291297054230386,0.3749318949400945,1.009315196876402,0.6221786522586571,0.2102725987583733,0.3876906751646785,0.7995704125577021,0.4578405663745039,0.4880437897077462,0.6704027537549238,1.312958502606938,0.6479943966585413,0.5672431495156838,0.5604504580088744,1.158019084544578,0.4654351203681296,0.4293139339689775,0.4525113266706232,0.890055607717556,478.6813186813187,801.4285714285714,792.5641025641025,682.1611721611722,587.8754578754579,0.332275,0.009033,0.952148,4.007568,-4.134674,-1.368256,1,1,1,1,1,30.000000
2021-11-11 01:57:22.006,,,,,,,,,,,,,,,,,,,,,,,,,,,,,,,,,,,,,,/muse/elements/blink
2021-11-11 01:57:22.233,,,,,,,,,,,,,,,,,,,,,,,,,,,,,,,,,,,,,,/muse/elements/blink
2021-11-11 01:57:22.988,1.416268770195748,0.4931603074868715,0.6114039449852551,1.065858449921621,0.6221786522586571,0.07029782177473959,0.3382581165830902,0.99019473338755,0.4578405663745039,0.461212837170212,0.6105563716414573,1.303418677840503,0.6479943966585413,0.8075411623291288,0.8693879770312607,1.145793743583574,0.4654351203681296,0.6719312320504981,0.6445277796474649,1.08181847600261,789.7435897435897,815.1282051282052,796.1904761904763,767.985347985348,794.5787545787546,0.312439,0.002808,0.964844,3.506622,-4.029999,-2.684174,1,1,1,1,1,30.000000
2021-11-11 01:57:23.912,,,,,,,,,,,,,,,,,,,,,,,,,,,,,,,,,,,,,,/muse/elements/blink
2021-11-11 01:57:23.989,0.7832962808710173,0.7397058741018187,0.4807337926416873,0.7281660897233776,0.3882587675195304,0.07499681439486222,0.09964979844300841,0.3288860489183387,0.6748635843465355,0.2737423503330991,0.2817653187560452,0.7117719052842109,0.7242891832907448,0.3887272537765523,0.4131325476191718,0.7276247209181191,0.7976307942070854,0.1503992276903675,-0.1033569209812941,0.3846799924860023,635.4212454212454,816.7399267399268,785.3113553113553,798.2051282051282,589.0842490842491,0.301758,-0.029358,0.963440,4.852448,-5.338440,-1.360779,1,1,1,1,1,30.000000
2021-11-11 01:57:24.677,,,,,,,,,,,,,,,,,,,,,,,,,,,,,,,,,,,,,,/muse/elements/jaw_clench
2021-11-11 01:57:24.771,,,,,,,,,,,,,,,,,,,,,,,,,,,,,,,,,,,,,,/muse/elements/blink
2021-11-11 01:57:24.990,0.7032026633822671,0.7415158425666575,0.5116351365574492,0.6654472475183216,0.3345072963567003,0.09129877583085266,0.1898200786237658,0.378302705458877,0.6748635843465355,0.5355383055892362,0.2675308389591709,0.7071791941138107,0.7261883774498896,0.113282530337455,0.04254934979224781,0.5992150124043295,0.7850375954928021,-0.3535957680989549,-0.4491016347625987,0.3011348358459559,1013.772893772894,1149.96336996337,669.6703296703297,833.2600732600733,749.4505494505495,0.318787,-0.015442,0.970337,3.596344,-2.721558,-2.482300,1,1,1,1,1,30.000000
2021-11-11 01:57:25.048,,,,,,,,,,,,,,,,,,,,,,,,,,,,,,,,,,,,,,/muse/elements/blink
2021-11-11 01:57:25.371,,,,,,,,,,,,,,,,,,,,,,,,,,,,,,,,,,,,,,/muse/elements/blink
2021-11-11 01:57:25.371,,,,,,,,,,,,,,,,,,,,,,,,,,,,,,,,,,,,,,/muse/elements/jaw_clench
2021-11-11 01:57:25.987,0.7032026633822671,0.886964783348542,0.5472378623916266,0.6654472475183216,0.3345072963567003,0.396200972855134,0.0970740540830487,0.378302705458877,0.6748635843465355,0.5024586338647336,-0.194170633071005,0.7071791941138107,0.7261883774498896,0.1043227342326004,-0.1314160308536535,0.5992150124043295,0.7850375954928021,-0.4889867328952605,-0.4182968938518977,0.3011348358459559,1014.578754578755,876.7765567765568,780.8791208791209,796.5934065934066,806.6666666666667,0.337036,-0.021667,0.951843,4.448700,-5.211334,-1.749573,1,1,4,1,1,30.000000
2021-11-11 01:57:26.688,,,,,,,,,,,,,,,,,,,,,,,,,,,,,,,,,,,,,,/muse/elements/blink
2021-11-11 01:57:26.987,0.7032026633822671,1.272064292447413,0.5540430182140803,0.6654472475183216,0.3345072963567003,0.8414758743121652,0.02558291937671009,0.378302705458877,0.6748635843465355,0.654827007933838,0.2020093158720415,0.7071791941138107,0.7261883774498896,0.4511159376121798,-0.1082311559179491,0.5992150124043295,0.7850375954928021,-0.5999104826152716,-0.4150019095547994,0.3011348358459559,878.7912087912089,838.0952380952381,792.5641025641025,770.4029304029305,734.5421245421246,0.349365,-0.020935,0.950623,4.568329,-3.259888,-1.936493,1,2,1,1,2,30.000000
2021-11-11 01:57:27.393,,,,,,,,,,,,,,,,,,,,,,,,,,,,,,,,,,,,,,/muse/elements/blink
2021-11-11 01:57:27.987,0.7032026633822671,1.197902604844199,0.6528310408778732,0.6654472475183216,0.3345072963567003,0.6176499603767374,0.1066431654568781,0.378302705458877,0.6748635843465355,0.6755496352636582,0.1492462794066805,0.7071791941138107,0.7261883774498896,0.416969364711101,0.07340661077447035,0.5992150124043295,0.7850375954928021,-0.4945485729132634,-0.3206897545911396,0.3011348358459559,894.908424908425,895.3113553113553,799.0109890109891,770.4029304029305,680.5494505494506,-0.458069,-0.044922,0.899475,3.985138,-2.736511,-3.267365,1,2,1,1,2,30.000000
2021-11-11 01:57:28.616,,,,,,,,,,,,,,,,,,,,,,,,,,,,,,,,,,,,,,/muse/elements/blink
2021-11-11 01:57:28.987,0.7032026633822671,1.10841479817957,0.5403123162054849,0.6654472475183216,0.3345072963567003,0.1305055689046569,0.3433248551779967,0.378302705458877,0.6748635843465355,0.3864892562366025,0.5244490330148279,0.7071791941138107,0.7261883774498896,0.3799071293646817,0.2261824591321633,0.5992150124043295,0.7850375954928021,-0.4098227477198579,-0.1966262655373665,0.3011348358459559,973.8827838827839,836.4835164835165,801.8315018315019,816.7399267399268,835.2747252747253,-0.475647,-0.092773,0.891357,-3.401947,1.659851,6.130981,1,2,1,1,2,30.000000
2021-11-11 01:57:29.987,1.417927907503474,1.200446710468084,0.7799369190269176,1.181060718144883,0.8679943772693252,0.8921485097241891,0.4272427411742518,0.7121187777338381,0.8868903916548873,0.7479514146114916,0.6165936952007688,1.115715778164602,0.7722775384427815,0.3794905216796606,0.1868426115581944,0.867584746666237,0.3624751017750591,0.1117897435042442,-0.1122577823670131,0.5318735634242578,896.1172161172161,825.6043956043957,804.2490842490843,799.4139194139194,934.3956043956044,-0.520386,-0.129028,0.861389,4.717865,-6.430054,-2.572021,1,1,1,1,1,30.000000
2021-11-11 01:57:30.988,1.529043049259017,1.758601762441789,1.052867507643926,1.022583201660981,0.7684503946040764,0.7459520104842009,0.5879977505340871,0.586633530487071,0.8576897312292353,0.7746301815623761,0.5196002615938873,1.151041748473514,0.757684117137727,0.5032052190844455,0.12453565774953,0.7340421132170223,0.4655511675815487,0.02483109370254981,-0.05858445169168226,0.5500291924221834,924.3223443223443,810.6959706959707,792.5641025641025,796.5934065934066,743.0036630036631,-0.502686,-0.133545,0.871094,4.448700,-5.016937,-1.353302,1,1,1,1,1,30.000000
2021-11-11 01:57:31.987,1.319482936361072,1.525702635931957,0.4617518820733642,0.8625289187807843,0.7677333616983476,0.3827964948606248,0.04981519308266341,0.8548872125932265,1.009632798691065,0.6478642672483953,0.2981968398388898,1.005616353202807,0.7507285095671787,0.3156512235203898,0.1446272061666693,0.758322407414927,0.5215164685034958,-0.1407227289210468,-0.1779489885798712,0.5286772632500611,857.4358974358975,831.2454212454213,805.0549450549451,732.1245421245421,871.941391941392,-0.505432,-0.136047,0.868164,6.676788,-7.424469,-2.115936,1,1,1,1,1,30.000000
2021-11-11 01:57:32.988,1.733995733277458,1.412213121913993,0.4832913874272727,1.756343534004333,0.87224386835377,0.2790754675533498,0.1753227849043764,0.9132124078554179,1.034692023881978,0.5288903898449249,0.3937562567842912,1.13605974596043,0.6585809318534358,0.2779904888058681,0.252618050439448,0.9041529069061084,0.4720943417199229,0.03853536284688694,0.09187100817993558,0.5377840270302258,934.7985347985348,784.9084249084249,807.4725274725275,838.4981684981685,993.6263736263736,-0.466125,-0.085205,0.896606,4.800110,-6.003876,-1.368256,1,1,1,1,1,30.000000
2021-11-11 01:57:33.992,2.039174901578541,1.53241188595619,0.3334845033864604,1.934556502917393,0.9038812161627445,0.4318892679101218,0.0558964418307174,0.5781929754660411,1.012402730356387,0.5958623335236327,0.3835138602491858,1.137114900715305,0.6454443642958494,0.2287866884876507,0.2247454355821512,0.6615778167760126,0.4456977478165044,0.1008420262035864,0.1587406279252517,0.4775595148808457,928.7545787545788,792.1611721611722,812.7106227106227,782.4908424908425,918.2783882783883,-0.416199,-0.082886,0.919983,5.084229,-5.076752,-1.024323,1,1,1,1,1,30.000000
2021-11-11 01:57:34.076,,,,,,,,,,,,,,,,,,,,,,,,,,,,,,,,,,,,,,/muse/elements/blink
2021-11-11 01:57:34.988,2.039174901578541,0.5306227276051292,0.6803433905660524,1.673915391415588,0.9038812161627445,0.02457926179127102,-0.003011923815389748,0.4969981840291552,1.012402730356387,0.509695372562362,0.3455875132187803,0.7596251228334993,0.6454443642958494,0.02318819426024138,0.09526871338482665,0.4592582035833455,0.4456977478165044,0.007534162350926442,-0.2409764552545482,0.5603413935160603,750.6593406593407,1087.106227106227,908.6080586080586,664.4322344322344,824.7985347985348,-0.412842,-0.070312,0.914368,5.233765,-7.701111,-0.254211,1,1,1,1,1,30.000000
2021-11-11 01:57:35.115,,,,,,,,,,,,,,,,,,,,,,,,,,,,,,,,,,,,,,/muse/elements/blink
2021-11-11 01:57:35.115,,,,,,,,,,,,,,,,,,,,,,,,,,,,,,,,,,,,,,/muse/elements/jaw_clench
2021-11-11 01:57:35.505,,,,,,,,,,,,,,,,,,,,,,,,,,,,,,,,,,,,,,/muse/elements/blink
2021-11-11 01:57:35.988,2.039174901578541,0.545305316524925,0.8882298153236946,2.386161353364787,0.9038812161627445,-0.01014805324424069,-0.1399968351256091,0.4868641253320736,1.012402730356387,0.4729987995622168,0.1935811479911236,1.084751603589463,0.6454443642958494,0.0498412573784251,0.06625912641888619,1.013802787680111,0.4456977478165044,0.03436220027926387,-0.2857873562703572,1.409990012291588,962.6007326007326,707.948717948718,765.5677655677656,776.8498168498169,936.007326007326,-0.371521,-0.029297,0.942932,3.544006,-5.802002,-3.229980,1,1,1,1,1,30.000000
2021-11-11 01:57:36.108,,,,,,,,,,,,,,,,,,,,,,,,,,,,,,,,,,,,,,/muse/elements/blink
