TimeStamp,Delta_TP9,Delta_AF7,Delta_AF8,Delta_TP10,Theta_TP9,Theta_AF7,Theta_AF8,Theta_TP10,Alpha_TP9,Alpha_AF7,Alpha_AF8,Alpha_TP10,Beta_TP9,Beta_AF7,Beta_AF8,Beta_TP10,Gamma_TP9,Gamma_AF7,Gamma_AF8,Gamma_TP10,RAW_TP9,RAW_AF7,RAW_AF8,RAW_TP10,AUX_RIGHT,Accelerometer_X,Accelerometer_Y,Accelerometer_Z,Gyro_X,Gyro_Y,Gyro_Z,HeadBandOn,HSI_TP9,HSI_AF7,HSI_AF8,HSI_TP10,Battery,Elements
2021-11-26 22:29:18.746,,,,,,,,,,,,,,,,,,,,,,,,,,,,,,,,,,,,,,/muse/elements/blink
2021-11-26 22:29:19.195,0.8162660894626346,1.517948999541502,0,1.257246990716357,0.8047427256820682,1.231393578112572,0,0.857215146529516,1.014291132782381,0.9424517106921342,0,0.9997137226927443,1.214223853755494,0.4770293272671601,0,0.7073514518571938,1.246571915589462,0.03969849844745191,0,0.8550146735523854,755.0915750915751,754.6886446886447,104.3589743589744,780.0732600732601,677.3260073260074,-0.650269,0.099609,0.783142,3.043060,-4.830017,-2.691650,1,1,1,2,1,100.000000
2021-11-26 22:29:19.952,,,,,,,,,,,,,,,,,,,,,,,,,,,,,,,,,,,,,,/muse/elements/blink
2021-11-26 22:29:20.041,,,,,,,,,,,,,,,,,,,,,,,,,,,,,,,,,,,,,,/muse/elements/jaw_clench
2021-11-26 22:29:20.205,1.365613510631878,1.388453347338485,0,0.7955470422318115,0.6291424761491434,1.065832702900566,0,0.6391345286225606,0.8283399344392895,0.8740901525358762,0,0.9754535226694013,0.9002074556849901,0.3497997912973668,0,0.7454463317433332,0.7628892446753806,0.09061766173053294,0,0.7354421772220413,757.9120879120879,598.3516483516484,112.8205128205128,759.92673992674,780.8791208791209,-0.600525,-0.096863,0.820374,-1.151428,-6.093597,-6.332855,1,1,1,4,1,100.000000
2021-11-26 22:29:20.567,,,,,,,,,,,,,,,,,,,,,,,,,,,,,,,,,,,,,,/muse/elements/jaw_clench
2021-11-26 22:29:21.196,1.365613510631878,1.545449179274261,0,0.7955470422318115,0.6291424761491434,1.054857426030146,0,0.6391345286225606,0.8283399344392895,0.8539752074824594,0,0.9754535226694013,0.9002074556849901,0.3327236775195719,0,0.7454463317433332,0.7628892446753806,-0.007344603477820144,0,0.7354421772220413,871.5384615384615,810.6959706959707,272.7838827838828,830.8424908424909,819.1575091575091,-0.640442,-0.344299,0.744934,-14.280701,8.598328,7.065582,1,1,4,4,1,100.000000
2021-11-26 22:29:21.511,,,,,,,,,,,,,,,,,,,,,,,,,,,,,,,,,,,,,,/muse/elements/blink
2021-11-26 22:29:22.195,1.365613510631878,1.545449179274261,0,0.7955470422318115,0.6291424761491434,1.054857426030146,0,0.6391345286225606,0.8283399344392895,0.8539752074824594,0,0.9754535226694013,0.9002074556849901,0.3327236775195719,0,0.7454463317433332,0.7628892446753806,-0.007344603477820144,0,0.7354421772220413,794.5787545787546,795.3846153846154,1037.948717948718,761.5384615384615,682.1611721611722,-0.726562,-0.353394,0.622986,3.372040,0.306549,-3.072968,1,2,1,4,2,100.000000
2021-11-26 22:29:22.825,,,,,,,,,,,,,,,,,,,,,,,,,,,,,,,,,,,,,,/muse/elements/blink
2021-11-26 22:29:22.825,,,,,,,,,,,,,,,,,,,,,,,,,,,,,,,,,,,,,,/muse/elements/jaw_clench
2021-11-26 22:29:23.196,1.226008636363505,1.545449179274261,0,0.5125193861252629,0.8662322756287254,1.054857426030146,0,0.5195061781622313,1.106518274328538,0.8539752074824594,0,1.000186975461108,1.201021015881675,0.3327236775195719,0,1.386488125770819,1.198785126806808,-0.007344603477820144,0,1.061464288416173,791.7582417582418,824.3956043956044,0,778.4615384615385,676.1172161172161,-0.662048,0.296326,0.727234,-3.551483,28.404388,-18.535004,1,1,1,4,1,100.000000
2021-11-26 22:29:24.196,1.226008636363505,1.545449179274261,0,1.106013634657445,0.8662322756287254,1.054857426030146,0,1.052301898874168,1.106518274328538,0.8539752074824594,0,0.7779287002872036,1.201021015881675,0.3327236775195719,0,1.35003922463498,1.198785126806808,-0.007344603477820144,0,1.115466403648703,741.3919413919414,781.2820512820513,1286.959706959707,797.3992673992674,724.4688644688645,-0.804016,-0.077576,0.611267,2.826233,-28.725891,-12.979736,1,1,1,2,1,100.000000
2021-11-26 22:29:24.228,,,,,,,,,,,,,,,,,,,,,,,,,,,,,,,,,,,,,,/muse/elements/jaw_clench
2021-11-26 22:29:25.196,1.226008636363505,1.545449179274261,0,1.11889530630369,0.8662322756287254,1.054857426030146,0,1.021423269937842,1.106518274328538,0.8539752074824594,0,0.8056026222804998,1.201021015881675,0.3327236775195719,0,1.271808083084152,1.198785126806808,-0.007344603477820144,0,1.094919326967597,808.2783882783883,633.4065934065934,1647.179487179487,801.025641025641,644.6886446886447,-0.384460,0.029907,0.928284,-5.293579,2.370148,0.433655,1,1,1,4,1,100.000000
2021-11-26 22:29:26.202,1.320150236751194,1.545449179274261,0,1.064254172868836,0.5171122254392669,1.054857426030146,0,0.8701895853513207,1.031133471252245,0.8539752074824594,0,1.016855188327024,1.117125012437761,0.3327236775195719,0,0.8012711436122892,1.341995136253281,-0.007344603477820144,0,0.7839463535929073,649.5238095238095,757.5091575091575,582.2344322344322,625.7509157509157,821.1721611721612,-0.694092,0.100037,0.738770,12.673187,24.090271,6.945953,1,1,1,2,1,100.000000
2021-11-26 22:29:26.542,,,,,,,,,,,,,,,,,,,,,,,,,,,,,,,,,,,,,,/muse/elements/blink
2021-11-26 22:29:27.196,1.320150236751194,1.545449179274261,0,0.781607276687605,0.5171122254392669,1.054857426030146,0,0.5725273195024125,1.031133471252245,0.8539752074824594,0,0.880634914671624,1.117125012437761,0.3327236775195719,0,0.7138410123727191,1.341995136253281,-0.007344603477820144,0,0.716648122905075,647.5091575091575,785.3113553113553,430.7326007326008,637.4358974358975,809.8901098901099,-0.567383,0.076172,0.810730,1.487885,-22.893982,2.347717,1,1,1,4,1,100.000000
2021-11-26 22:29:27.378,,,,,,,,,,,,,,,,,,,,,,,,,,,,,,,,,,,,,,/muse/elements/blink
2021-11-26 22:29:27.709,,,,,,,,,,,,,,,,,,,,,,,,,,,,,,,,,,,,,,/muse/elements/blink
2021-11-26 22:29:28.196,1.320150236751194,1.325828852397835,0,0.7145082869472963,0.5171122254392669,0.1687290835819083,0,0.4556830503189845,1.031133471252245,0.2379142795192179,0,0.8228626676177849,1.117125012437761,0.1722371984420555,0,0.6996153552361235,1.341995136253281,-0.3326499261702994,0,0.6438559503915005,790.5494505494506,822.7838827838829,1643.553113553114,780.0732600732601,778.4615384615385,-0.704651,0.108887,0.748596,1.555176,24.419250,-12.665710,1,1,1,4,1,100.000000
2021-11-26 22:29:28.824,,,,,,,,,,,,,,,,,,,,,,,,,,,,,,,,,,,,,,/muse/elements/jaw_clench
2021-11-26 22:29:29.196,1.320150236751194,1.325828852397835,0,0.7145082869472963,0.5171122254392669,0.1687290835819083,0,0.4556830503189845,1.031133471252245,0.2379142795192179,0,0.8228626676177849,1.117125012437761,0.1722371984420555,0,0.6996153552361235,1.341995136253281,-0.3326499261702994,0,0.6438559503915005,893.6996336996338,695.8608058608058,999.6703296703297,854.2124542124542,958.974358974359,-0.781006,-0.031250,0.625793,-1.540222,-5.884247,-4.059906,1,2,1,4,2,100.000000
2021-11-26 22:29:29.523,,,,,,,,,,,,,,,,,,,,,,,,,,,,,,,,,,,,,,/muse/elements/blink
2021-11-26 22:29:30.196,1.320150236751194,1.325828852397835,0,0.7145082869472963,0.5171122254392669,0.1687290835819083,0,0.4556830503189845,1.031133471252245,0.2379142795192179,0,0.8228626676177849,1.117125012437761,0.1722371984420555,0,0.6996153552361235,1.341995136253281,-0.3326499261702994,0,0.6438559503915005,791.7582417582418,768.3882783882784,869.92673992674,784.5054945054945,777.2527472527473,-0.733521,-0.121948,0.715942,2.026215,-4.912262,-1.876678,1,2,1,4,2,100.000000
2021-11-26 22:29:30.313,,,,,,,,,,,,,,,,,,,,,,,,,,,,,,,,,,,,,,/muse/elements/jaw_clench
2021-11-26 22:29:30.840,,,,,,,,,,,,,,,,,,,,,,,,,,,,,,,,,,,,,,/muse/elements/jaw_clench
2021-11-26 22:29:31.130,,,,,,,,,,,,,,,,,,,,,,,,,,,,,,,,,,,,,,/muse/elements/jaw_clench
2021-11-26 22:29:31.196,1.015313753868487,0.5094315896423105,0,0.788486111948221,0.4321916483714441,-0.1013289372145424,0,0.2387799834301808,1.227093245471746,0.1830125473500769,0,0.9569208311022041,1.27407479048656,1.129297365874259,0,1.30765514053716,1.272673086164072,1.082916952483818,0,1.319358820170734,747.032967032967,819.1575091575091,415.8241758241758,741.3919413919414,700.2930402930403,-0.597107,-0.157349,0.622314,-9.039459,-28.703461,-2.863617,1,1,1,4,1,100.000000
2021-11-26 22:29:31.552,,,,,,,,,,,,,,,,,,,,,,,,,,,,,,,,,,,,,,/muse/elements/jaw_clench
2021-11-26 22:29:32.196,1.018588695083229,0.5527800287551256,0,1.085983983280584,0.6533740348446098,-0.04628987514398619,0,0.3953019911114909,1.237570123172605,0.06486997114194848,0,1.060397752814205,1.224352409480734,1.122607938157526,0,1.218201076991827,1.299850991699317,1.171170499965721,0,1.312754358198743,787.7289377289378,802.6373626373627,981.5384615384615,794.1758241758242,917.8754578754579,-0.695801,-0.144104,0.733765,0.485992,-12.142334,-2.287903,1,1,1,4,1,100.000000
2021-11-26 22:29:32.466,,,,,,,,,,,,,,,,,,,,,,,,,,,,,,,,,,,,,,/muse/elements/blink
2021-11-26 22:29:32.598,,,,,,,,,,,,,,,,,,,,,,,,,,,,,,,,,,,,,,/muse/elements/jaw_clench
2021-11-26 22:29:33.195,1.083496811162919,1.185342157831078,0,1.219634256866529,0.5456597844887683,0.5729823374307061,0,0.2844543202824829,0.9941917453485828,0.6179665726481328,0,0.9559451465998853,1.254903577158597,1.05117603631894,0,1.238184563018302,1.288256968520572,1.250503328712804,0,1.386271724214714,751.8681318681319,764.3589743589744,1142.307692307692,830.4395604395604,778.8644688644689,-0.841858,-0.208313,0.624207,14.923706,25.757599,-16.277008,1,1,1,4,1,100.000000
2021-11-26 22:29:33.785,,,,,,,,,,,,,,,,,,,,,,,,,,,,,,,,,,,,,,/muse/elements/blink
2021-11-26 22:29:34.196,1.112788208970835,1.644143152849266,0,1.172121338076406,0.5309144391807851,0.9673995305847023,0,0.2821515173049695,0.9941917453485828,0.7579977860087148,0,0.9559451465998853,1.283458285215363,1.18943974307964,0,1.272384713060363,1.303342195289742,1.259436493088719,0,1.408596708571491,719.6336996336996,823.1868131868132,1540,777.6556776556777,776.8498168498169,-0.756836,-0.202881,0.635376,4.463654,-20.733185,-3.469238,1,1,1,4,1,100.000000
2021-11-26 22:29:34.684,,,,,,,,,,,,,,,,,,,,,,,,,,,,,,,,,,,,,,/muse/elements/blink
2021-11-26 22:29:35.204,1.112788208970835,1.540106694654347,0,1.172121338076406,0.5309144391807851,0.9173907884659628,0,0.2821515173049695,0.9941917453485828,0.7693911811005544,0,0.9559451465998853,1.283458285215363,1.191787379483362,0,1.272384713060363,1.303342195289742,0.9474499287165317,0,1.408596708571491,811.5018315018315,821.5750915750916,1065.750915750916,831.6483516483516,855.0183150183151,-0.740234,0.035889,0.708984,2.504730,6.317902,3.611298,1,2,1,4,2,95.000000
2021-11-26 22:29:36.000,,,,,,,,,,,,,,,,,,,,,,,,,,,,,,,,,,,,,,/muse/elements/blink
2021-11-26 22:29:36.195,1.112788208970835,1.493641382791264,0,1.172121338076406,0.5309144391807851,0.7071286086937131,0,0.2821515173049695,0.9941917453485828,0.6109751037429816,0,0.9559451465998853,1.283458285215363,1.042736174989735,0,1.272384713060363,1.303342195289742,0.7473091063412683,0,1.408596708571491,870.7326007326008,793.7728937728938,797.3992673992674,796.5934065934066,717.2161172161173,-0.800781,0.148865,0.568176,-30.602570,-2.661743,24.882812,1,2,1,4,2,95.000000
2021-11-26 22:29:37.195,1.112788208970835,1.294564017064889,0,1.172121338076406,0.5309144391807851,0.2937391148525724,0,0.2821515173049695,0.9941917453485828,0.6111746583142798,0,0.9559451465998853,1.283458285215363,1.124452562399116,0,1.272384713060363,1.303342195289742,1.459076045134059,0,1.408596708571491,805.4578754578755,761.5384615384615,703.5164835164835,823.5897435897436,746.2271062271062,-0.818298,-0.033142,0.638611,1.360779,-14.407806,-1.226196,1,2,1,2,2,95.000000
2021-11-26 22:29:38.138,,,,,,,,,,,,,,,,,,,,,,,,,,,,,,,,,,,,,,/muse/elements/blink
2021-11-26 22:29:38.196,1.112788208970835,0.4937927933652947,0,1.172121338076406,0.5309144391807851,0.02820249869997576,0,0.2821515173049695,0.9941917453485828,0.332587905225271,0,0.9559451465998853,1.283458285215363,0.9629931689006004,0,1.272384713060363,1.303342195289742,0.8815884015571555,0,1.408596708571491,1029.89010989011,786.1172161172161,1135.457875457875,853.4065934065934,773.2234432234433,-0.641174,-0.000244,0.781616,39.170990,-2.213135,-9.121704,1,2,1,2,2,95.000000
2021-11-26 22:29:39.197,1.112788208970835,1.27278524846692,0,1.172121338076406,0.5309144391807851,0.5303867063640947,0,0.2821515173049695,0.9941917453485828,0.6412426788481492,0,0.9559451465998853,1.283458285215363,1.145682540055931,0,1.272384713060363,1.303342195289742,1.212024139283872,0,1.408596708571491,759.1208791208792,789.7435897435897,655.9706959706959,774.0293040293041,790.952380952381,-0.772522,0.058838,0.648865,3.102875,-2.848663,0.142059,1,2,1,2,2,95.000000
2021-11-26 22:29:40.172,,,,,,,,,,,,,,,,,,,,,,,,,,,,,,,,,,,,,,/muse/elements/blink
2021-11-26 22:29:40.195,1.112788208970835,0.6294667940015515,0,0.7529036708266178,0.5309144391807851,0.1746237108419016,0,0.7843361639311794,0.9941917453485828,0.6158415856128625,0,1.13892904099766,1.283458285215363,0.9317830303624377,0,1.360799531204526,1.303342195289742,0.9800069262423993,0,1.124218490222064,777.6556776556777,744.6153846153846,0,744.2124542124542,792.5641025641025,-0.834656,0.226685,0.557556,-99.187317,19.596710,91.568451,1,1,1,2,1,95.000000
2021-11-26 22:29:41.196,1.112788208970835,1.380290707893441,0,0.5938998683224207,0.5309144391807851,0.5481882811878251,0,0.8686116295527594,0.9941917453485828,0.8267064630411721,0,1.117164609741897,1.283458285215363,0.7936903490586442,0,1.319824916118255,1.303342195289742,0.6235680541261724,0,1.083170786860158,772.4175824175825,793.7728937728938,1616.153846153846,765.9706959706959,884.8351648351648,-0.817078,0.064941,0.579712,1.600037,-20.164948,0.418701,1,1,1,2,1,95.000000
2021-11-26 22:29:42.084,,,,,,,,,,,,,,,,,,,,,,,,,,,,,,,,,,,,,,/muse/elements/blink
2021-11-26 22:29:42.195,1.112788208970835,1.098453517408662,0,1.176333728287826,0.5309144391807851,0.5405598470918004,0,0.4962608965050045,0.9941917453485828,0.925961430394623,0,0.9250860205992611,1.283458285215363,0.7281176899816859,0,1.042070412443147,1.303342195289742,0.7184710072406416,0,1.589570005109205,818.3516483516484,776.4468864468864,1294.615384615385,862.6739926739926,790.1465201465202,-0.639648,0.017761,0.750916,24.486542,-28.845520,-14.333038,1,1,1,4,1,95.000000
2021-11-26 22:29:42.853,,,,,,,,,,,,,,,,,,,,,,,,,,,,,,,,,,,,,,/muse/elements/jaw_clench
2021-11-26 22:29:43.196,1.112788208970835,1.477040119899557,0,1.154254847420618,0.5309144391807851,0.6907931183350614,0,0.4411111814786042,0.9941917453485828,0.8153657084890924,0,0.7513746692405344,1.283458285215363,0.5697613253536803,0,1.088266019281973,1.303342195289742,0.4756692619741727,0,1.640789269781389,837.6923076923077,815.1282051282052,0,823.5897435897436,832.8571428571429,-0.656799,0.095215,0.756592,11.618958,-15.409698,16.822815,1,1,1,2,1,95.000000
2021-11-26 22:29:43.641,,,,,,,,,,,,,,,,,,,,,,,,,,,,,,,,,,,,,,/muse/elements/blink
2021-11-26 22:29:44.198,1.112788208970835,1.482653416008104,0,1.154254847420618,0.5309144391807851,0.7406716452987062,0,0.4411111814786042,0.9941917453485828,0.7601645428901093,0,0.7513746692405344,1.283458285215363,0.3393054823071961,0,1.088266019281973,1.303342195289742,-0.1673998382470254,0,1.640789269781389,818.3516483516484,817.948717948718,3.626373626373626,813.5164835164835,1011.758241758242,-0.702454,0.293640,0.679932,11.529236,-24.105225,-2.302856,1,1,1,4,1,95.000000
2021-11-26 22:29:45.129,,,,,,,,,,,,,,,,,,,,,,,,,,,,,,,,,,,,,,/muse/elements/blink
2021-11-26 22:29:45.195,1.112788208970835,1.629313187305318,0,1.357715186526676,0.5309144391807851,1.143594408945911,0,0.6003187459534141,0.9941917453485828,0.8487918747781685,0,1.258494863217948,1.283458285215363,0.4317250686187544,0,0.6308513441283045,1.303342195289742,0.066157168642834,0,0.5872982925455477,800.6227106227107,944.0659340659341,1623.809523809524,831.2454212454213,813.919413919414,-0.614258,0.294983,0.768066,-8.501129,39.724274,0.426178,1,1,1,4,1,100.000000
2021-11-26 22:29:45.260,,,,,,,,,,,,,,,,,,,,,,,,,,,,,,,,,,,,,,/muse/elements/jaw_clench
2021-11-26 22:29:45.458,,,,,,,,,,,,,,,,,,,,,,,,,,,,,,,,,,,,,,/muse/elements/blink
2021-11-26 22:29:45.892,,,,,,,,,,,,,,,,,,,,,,,,,,,,,,,,,,,,,,/muse/elements/jaw_clench
2021-11-26 22:29:46.196,1.112788208970835,1.867393754814002,0,1.357715186526676,0.5309144391807851,1.350240718527516,0,0.6003187459534141,0.9941917453485828,0.7168190912386937,0,1.258494863217948,1.283458285215363,0.5827305739590003,0,0.6308513441283045,1.303342195289742,0.1263835355010364,0,0.5872982925455477,838.4981684981685,817.948717948718,1616.153846153846,857.032967032967,857.4358974358975,-0.828125,0.025330,0.600098,5.196381,-11.693726,-8.022614,1,1,1,4,1,100.000000
2021-11-26 22:29:47.092,,,,,,,,,,,,,,,,,,,,,,,,,,,,,,,,,,,,,,/muse/elements/blink
2021-11-26 22:29:47.196,1.346312823326397,1.768171474787629,0,1.357470627279695,0.7368600007132891,0.6314820980412772,0,0.722126633998462,0.6844358154606088,0.6172367119241454,0,0.5776702659059316,1.412043901587819,0.6287881390484379,0,1.238640243039137,1.393356262589807,0.2734850838062184,0,1.100040752211006,880,801.4285714285714,0,839.3040293040293,765.9706959706959,-0.673950,-0.044617,0.766785,16.486359,-24.396820,-0.328979,1,1,1,4,1,100.000000
2021-11-26 22:29:47.882,,,,,,,,,,,,,,,,,,,,,,,,,,,,,,,,,,,,,,/muse/elements/blink
2021-11-26 22:29:48.196,1.346312823326397,1.900678573234651,0,1.317211656599522,0.7368600007132891,0.8526964344962131,0,0.7151426758821436,0.6844358154606088,0.6260890540661421,0,0.5091196886452783,1.412043901587819,0.5044149481998431,0,1.243065576351138,1.393356262589807,0.1149577233765767,0,1.142268424912591,793.3699633699634,800.6227106227107,383.1868131868132,793.7728937728938,752.6739926739926,-0.662598,0.056824,0.752502,8.590851,2.968292,12.202148,1,1,1,4,1,100.000000
2021-11-26 22:29:49.196,0.7019102046282755,1.277163810973385,0,1.187411902147041,0.9911681001599926,0.2430863961955833,0,1.107964931542397,1.213545773470539,0.3987169642695593,0,0.8831489692006945,1.225536961049991,0.2449012884709718,0,1.052246907006679,0.9719978223645392,-0.1851516520029832,0,0.7742672187706535,806.6666666666667,812.7106227106227,697.8754578754579,796.996336996337,759.92673992674,-0.779358,0.238586,0.631409,8.202057,-4.717865,1.794434,1,1,1,4,1,100.000000
2021-11-26 22:29:49.915,,,,,,,,,,,,,,,,,,,,,,,,,,,,,,,,,,,,,,/muse/elements/jaw_clench
2021-11-26 22:29:50.003,,,,,,,,,,,,,,,,,,,,,,,,,,,,,,,,,,,,,,/muse/elements/blink
2021-11-26 22:29:50.133,,,,,,,,,,,,,,,,,,,,,,,,,,,,,,,,,,,,,,/muse/elements/jaw_clench
2021-11-26 22:29:50.196,0.8834692196519672,0.9155654690338482,0,1.253554130173261,0.9845194700435375,0.2985161232684511,0,1.11712657532304,1.226899218267425,0.7654635771081009,0,1.169619065638024,1.28988145841763,0.3424962529686656,0,0.9790687976510694,1.191122484613033,-0.1040261758477783,0,0.6894806691788248,865.0915750915751,806.6666666666667,1418.315018315018,829.6336996336996,867.5091575091575,-0.741272,0.273132,0.633728,-8.037567,-13.450775,-18.280792,1,1,1,4,1,100.000000
2021-11-26 22:29:50.943,,,,,,,,,,,,,,,,,,,,,,,,,,,,,,,,,,,,,,/muse/elements/blink
2021-11-26 22:29:51.198,0.9300153547651795,0.6096440801915471,0,1.322624762342937,0.8926627408295701,0.4979123446352585,0,1.064508066332989,0.9028378288990493,0.7324280777107202,0,1.112113385432459,1.25716788641138,0.4230274210427833,0,0.9165453065228555,1.314665113163506,-0.06687805543901308,0,0.6124357689428905,868.3150183150184,841.3186813186813,0,789.7435897435897,760.3296703296703,-0.645081,-0.138062,0.756714,5.458069,8.575897,-19.424744,1,1,1,2,1,100.000000
2021-11-26 22:29:51.837,,,,,,,,,,,,,,,,,,,,,,,,,,,,,,,,,,,,,,/muse/elements/jaw_clench
2021-11-26 22:29:52.196,0.9300153547651795,0.6096440801915471,0,1.322624762342937,0.8926627408295701,0.4979123446352585,0,1.064508066332989,0.9028378288990493,0.7324280777107202,0,1.112113385432459,1.25716788641138,0.4230274210427833,0,0.9165453065228555,1.314665113163506,-0.06687805543901308,0,0.6124357689428905,712.3809523809524,871.1355311355312,1623.809523809524,786.1172161172161,859.4505494505495,-0.670593,0.049072,0.766663,-19.020996,-20.635986,4.934692,1,1,1,4,1,100.000000
2021-11-26 22:29:52.337,,,,,,,,,,,,,,,,,,,,,,,,,,,,,,,,,,,,,,/muse/elements/blink
2021-11-26 22:29:52.426,,,,,,,,,,,,,,,,,,,,,,,,,,,,,,,,,,,,,,/muse/elements/jaw_clench
2021-11-26 22:29:52.860,,,,,,,,,,,,,,,,,,,,,,,,,,,,,,,,,,,,,,/muse/elements/blink
2021-11-26 22:29:53.056,,,,,,,,,,,,,,,,,,,,,,,,,,,,,,,,,,,,,,/muse/elements/jaw_clench
2021-11-26 22:29:53.199,0.9300153547651795,0.6096440801915471,0,1.322624762342937,0.8926627408295701,0.4979123446352585,0,1.064508066332989,0.9028378288990493,0.7324280777107202,0,1.112113385432459,1.25716788641138,0.4230274210427833,0,0.9165453065228555,1.314665113163506,-0.06687805543901308,0,0.6124357689428905,789.7435897435897,848.1684981684982,1146.739926739927,773.2234432234433,775.6410256410256,-0.649170,-0.172791,0.746704,-9.375916,-8.351593,13.398438,1,2,1,2,2,100.000000
2021-11-26 22:29:54.196,0.9300153547651795,1.147203784864756,0,1.322624762342937,0.8926627408295701,0.5267221978557821,0,1.064508066332989,0.9028378288990493,0.8115941979469109,0,1.112113385432459,1.25716788641138,1.005460669772964,0,0.9165453065228555,1.314665113163506,1.34458794614818,0,0.6124357689428905,821.1721611721612,807.4725274725275,1631.868131868132,786.1172161172161,760.7326007326008,-0.770630,-0.260803,0.586975,-1.742096,2.444916,13.540497,1,2,1,4,2,100.000000
2021-11-26 22:29:55.017,,,,,,,,,,,,,,,,,,,,,,,,,,,,,,,,,,,,,,/muse/elements/jaw_clench
2021-11-26 22:29:55.195,0.9300153547651795,0.8792348604295011,0,1.202680922080129,0.8926627408295701,0.2789029734977979,0,0.8293612999617344,0.9028378288990493,0.8170255374239195,0,1.323523936615154,1.25716788641138,1.00656620898788,0,1.18284613145096,1.314665113163506,1.177604712183595,0,1.142813503798287,846.959706959707,812.7106227106227,768.7912087912088,851.3919413919414,977.9120879120879,-0.790039,-0.185730,0.614502,6.467438,-28.396912,19.148102,1,1,1,4,1,100.000000
2021-11-26 22:29:56.196,0.9300153547651795,0.7565350122535439,0,1.226727326119677,0.8926627408295701,0.3066803211194044,0,0.8420548429147727,0.9028378288990493,0.7057361064858525,0,1.3090271477342,1.25716788641138,0.9545083257347983,0,0.9760091068985217,1.314665113163506,0.7502522285267461,0,1.104253642986337,761.5384615384615,825.6043956043957,1615.750915750916,840.1098901098901,818.3516483516484,-0.767273,0.061462,0.633972,24.456635,0.022430,-18.407898,1,1,1,4,1,100.000000
2021-11-26 22:29:57.200,0.9300153547651795,1.147682273749577,0,1.226727326119677,0.8926627408295701,0.3946635240708464,0,0.8420548429147727,0.9028378288990493,0.7092785691098545,0,1.3090271477342,1.25716788641138,0.9562579547722295,0,0.9760091068985217,1.314665113163506,0.8050135945032448,0,1.104253642986337,875.9706959706959,842.5274725274726,1462.637362637363,826.8131868131868,743.0036630036631,-0.830627,-0.170532,0.615784,-2.549591,-25.742645,-1.278534,1,1,1,4,1,100.000000
2021-11-26 22:29:58.196,0.9300153547651795,1.475142571227486,0,1.226727326119677,0.8926627408295701,0.5900184162899185,0,0.8420548429147727,0.9028378288990493,0.69483158682859,0,1.3090271477342,1.25716788641138,0.7854909074358282,0,0.9760091068985217,1.314665113163506,0.7141669482832335,0,1.104253642986337,813.1135531135532,823.1868131868132,1626.630036630037,775.6410256410256,851.3919413919414,-0.706604,-0.161499,0.679626,3.020630,18.617249,1.435547,1,2,1,4,2,100.000000
2021-11-26 22:29:59.199,0.9300153547651795,1.411519266297969,0,1.226727326119677,0.8926627408295701,0.4361465617945214,0,0.8420548429147727,0.9028378288990493,0.7546364048577742,0,1.3090271477342,1.25716788641138,0.7817585410514722,0,0.9760091068985217,1.314665113163506,0.4550618487192307,0,1.104253642986337,791.3553113553114,808.2783882783883,946.4835164835165,809.4871794871796,788.1318681318681,-0.803833,-0.196899,0.590332,2.871094,-19.379883,1.831818,1,2,1,4,2,100.000000
2021-11-26 22:30:00.196,0.9300153547651795,0.9817867855766883,0,1.226727326119677,0.8926627408295701,0.3671979270966531,0,0.8420548429147727,0.9028378288990493,0.9621765114677246,0,1.3090271477342,1.25716788641138,0.6742038711842233,0,0.9760091068985217,1.314665113163506,0.3313578335969741,0,1.104253642986337,791.7582417582418,827.2161172161173,1037.545787545788,886.8498168498169,751.4652014652015,-0.713806,-0.195312,0.747192,7.102966,3.043060,-2.063599,1,2,1,2,2,100.000000
2021-11-26 22:30:01.195,0.9300153547651795,0.7065758304605734,0,1.226727326119677,0.8926627408295701,0.6027968533373075,0,0.8420548429147727,0.9028378288990493,0.9193159690207555,0,1.3090271477342,1.25716788641138,0.7961491356687859,0,0.9760091068985217,1.314665113163506,0.6311805112346214,0,1.104253642986337,876.7765567765568,866.7032967032967,1334.102564102564,798.2051282051282,768.3882783882784,-0.764587,-0.180176,0.656433,10.205841,18.228455,-9.869385,1,2,1,4,2,100.000000
2021-11-26 22:30:01.820,,,,,,,,,,,,,,,,,,,,,,,,,,,,,,,,,,,,,,/muse/elements/blink
2021-11-26 22:30:02.205,0.9300153547651795,1.309481828917817,0,1.226727326119677,0.8926627408295701,0.5147646868492498,0,0.8420548429147727,0.9028378288990493,0.7870821818790694,0,1.3090271477342,1.25716788641138,1.121224920214942,0,0.9760091068985217,1.314665113163506,1.204719310200699,0,1.104253642986337,873.1501831501831,821.1721611721612,501.2454212454213,825.2014652014652,810.2930402930403,-0.476807,-0.091187,0.905273,2.429962,-12.359161,6.497345,1,2,1,4,2,100.000000
2021-11-26 22:30:03.196,0.9300153547651795,1.290004368279495,0,1.226727326119677,0.8926627408295701,0.2054799290182848,0,0.8420548429147727,0.9028378288990493,0.6925805233659341,0,1.3090271477342,1.25716788641138,1.048286612959188,0,0.9760091068985217,1.314665113163506,0.9500285123243075,0,1.104253642986337,859.8534798534798,813.1135531135532,246.5934065934066,810.2930402930403,651.1355311355312,-0.378662,0.165161,0.867310,4.463654,4.800110,-11.873169,1,2,1,4,2,100.000000
2021-11-26 22:30:03.547,,,,,,,,,,,,,,,,,,,,,,,,,,,,,,,,,,,,,,/muse/elements/jaw_clench
2021-11-26 22:30:04.196,0.9300153547651795,0.991857811934903,0,1.226727326119677,0.8926627408295701,0.5426096334662925,0,0.8420548429147727,0.9028378288990493,0.6004548378703667,0,1.3090271477342,1.25716788641138,0.4942271725768384,0,0.9760091068985217,1.314665113163506,0.3322096723130177,0,1.104253642986337,799.0109890109891,794.1758241758242,71.31868131868131,832.4542124542124,765.9706959706959,-0.433533,0.057434,0.871826,-3.985138,2.572021,-12.815247,1,2,1,2,2,100.000000
2021-11-26 22:30:05.196,0.9300153547651795,1.070832799512464,0,1.226727326119677,0.8926627408295701,0.6435889609363395,0,0.8420548429147727,0.9028378288990493,0.7807252489359275,0,1.3090271477342,1.25716788641138,0.3212659392847849,0,0.9760091068985217,1.314665113163506,0.04310157230527576,0,1.104253642986337,840.1098901098901,803.040293040293,0,854.6153846153846,970.6593406593407,-0.504456,-0.062866,0.858582,14.662018,15.133057,4.493561,1,2,1,1,2,100.000000
2021-11-26 22:30:05.241,,,,,,,,,,,,,,,,,,,,,,,,,,,,,,,,,,,,,,/muse/elements/blink
2021-11-26 22:30:05.837,,,,,,,,,,,,,,,,,,,,,,,,,,,,,,,,,,,,,,/muse/elements/jaw_clench
2021-11-26 22:30:06.196,0.9300153547651795,0.6749021110253943,0,1.226727326119677,0.8926627408295701,0.4043029805318726,0,0.8420548429147727,0.9028378288990493,0.738487480821201,0,1.3090271477342,1.25716788641138,0.4881101748213486,0,0.9760091068985217,1.314665113163506,0.03403433102344632,0,1.104253642986337,797.8021978021978,816.3369963369963,371.5018315018315,778.8644688644689,804.6520146520147,-0.603638,0.106567,0.803284,5.293579,-2.429962,-5.196381,1,2,1,1,2,100.000000
2021-11-26 22:30:06.799,,,,,,,,,,,,,,,,,,,,,,,,,,,,,,,,,,,,,,/muse/elements/jaw_clench
2021-11-26 22:30:07.196,0.9300153547651795,1.774384403974326,0,1.226727326119677,0.8926627408295701,0.7133712388006945,0,0.8420548429147727,0.9028378288990493,0.9273100488324648,0,1.3090271477342,1.25716788641138,0.5199846235936791,0,0.9760091068985217,1.314665113163506,0.1238500081077256,0,1.104253642986337,744.6153846153846,782.0879120879121,0,773.2234432234433,759.92673992674,-0.621887,0.120972,0.751465,8.545990,-2.572021,14.377899,1,2,1,4,2,100.000000
2021-11-26 22:30:07.476,,,,,,,,,,,,,,,,,,,,,,,,,,,,,,,,,,,,,,/muse/elements/blink
2021-11-26 22:30:08.196,0.9300153547651795,1.871446906803636,0,1.226727326119677,0.8926627408295701,0.7854655404369683,0,0.8420548429147727,0.9028378288990493,0.9152210134116114,0,1.3090271477342,1.25716788641138,0.6799958092681604,0,0.9760091068985217,1.314665113163506,0.1138999584198704,0,1.104253642986337,823.1868131868132,843.3333333333334,1623.809523809524,813.5164835164835,760.7326007326008,-0.628174,0.223083,0.708740,-17.054596,11.230164,7.850647,1,2,1,4,2,100.000000
2021-11-26 22:30:08.417,,,,,,,,,,,,,,,,,,,,,,,,,,,,,,,,,,,,,,/muse/elements/jaw_clench
2021-11-26 22:30:08.596,,,,,,,,,,,,,,,,,,,,,,,,,,,,,,,,,,,,,,/muse/elements/blink
2021-11-26 22:30:08.596,,,,,,,,,,,,,,,,,,,,,,,,,,,,,,,,,,,,,,/muse/elements/jaw_clench
2021-11-26 22:30:09.196,0.9300153547651795,1.623348762437877,0,1.226727326119677,0.8926627408295701,0.228400955677583,0,0.8420548429147727,0.9028378288990493,0.6907014943082433,0,1.3090271477342,1.25716788641138,0.5771852888715387,0,0.9760091068985217,1.314665113163506,0.0390216048385682,0,1.104253642986337,797.8021978021978,773.2234432234433,1313.150183150183,817.948717948718,704.7252747252747,-0.660583,0.376038,0.662292,-5.443115,-15.110626,15.035858,1,2,1,4,2,100.000000
2021-11-26 22:30:09.512,,,,,,,,,,,,,,,,,,,,,,,,,,,,,,,,,,,,,,/muse/elements/blink
2021-11-26 22:30:10.199,0.9300153547651795,1.842724817198947,0,1.226727326119677,0.8926627408295701,0.07879585132108732,0,0.8420548429147727,0.9028378288990493,0.2871952803426731,0,1.3090271477342,1.25716788641138,0.2688309473791732,0,0.9760091068985217,1.314665113163506,0.1356254255308546,0,1.104253642986337,829.2307692307693,802.2344322344322,621.7216117216118,839.3040293040293,944.8717948717949,-0.748596,0.196167,0.659241,-1.173859,4.852448,-9.667511,1,2,1,4,2,100.000000
2021-11-26 22:30:11.204,0.9300153547651795,0.9335622265714343,0,1.226727326119677,0.8926627408295701,0.001267905433950565,0,0.8420548429147727,0.9028378288990493,0.3397599801591635,0,1.3090271477342,1.25716788641138,0.6161248394156759,0,0.9760091068985217,1.314665113163506,0.3811181109012145,0,1.104253642986337,865.8974358974359,840.9157509157509,1239.010989010989,898.9377289377289,721.6483516483516,-0.803528,-0.058167,0.549622,7.297363,2.272949,-13.854523,1,2,1,2,2,100.000000
2021-11-26 22:30:12.196,0.9300153547651795,1.111867035783462,0,1.226727326119677,0.8926627408295701,0.3387374784824902,0,0.8420548429147727,0.9028378288990493,0.5598494086794649,0,1.3090271477342,1.25716788641138,0.7670428615495465,0,0.9760091068985217,1.314665113163506,0.527961676191552,0,1.104253642986337,754.6886446886447,777.2527472527473,1187.032967032967,913.040293040293,661.2087912087912,-0.673767,-0.153992,0.682373,13.764801,-17.129364,-39.021454,1,2,1,4,2,100.000000
2021-11-26 22:30:12.794,,,,,,,,,,,,,,,,,,,,,,,,,,,,,,,,,,,,,,/muse/elements/blink
2021-11-26 22:30:13.195,0.9300153547651795,0.9548784676616984,0,1.226727326119677,0.8926627408295701,0.2352137004023804,0,0.8420548429147727,0.9028378288990493,0.6140596691242413,0,1.3090271477342,1.25716788641138,0.7396609730447873,0,0.9760091068985217,1.314665113163506,0.7490868799239893,0,1.104253642986337,814.7252747252747,793.7728937728938,920.2930402930403,783.2967032967033,851.3919413919414,-0.761719,-0.228088,0.583008,7.521667,4.949646,3.416901,1,2,1,2,2,100.000000
2021-11-26 22:30:13.501,,,,,,,,,,,,,,,,,,,,,,,,,,,,,,,,,,,,,,/muse/elements/blink
2021-11-26 22:30:14.196,0.9300153547651795,1.091126659900894,0,1.226727326119677,0.8926627408295701,0.3611116382060968,0,0.8420548429147727,0.9028378288990493,0.2093250600373556,0,1.3090271477342,1.25716788641138,0.4820922078671347,0,0.9760091068985217,1.314665113163506,0.371800953743982,0,1.104253642986337,756.7032967032967,778.0586080586081,82.6007326007326,728.901098901099,907.3992673992674,-0.788391,-0.148132,0.611389,3.641205,-10.482483,-15.544281,1,2,1,2,2,100.000000
2021-11-26 22:30:14.507,,,,,,,,,,,,,,,,,,,,,,,,,,,,,,,,,,,,,,/muse/elements/blink
2021-11-26 22:30:15.163,,,,,,,,,,,,,,,,,,,,,,,,,,,,,,,,,,,,,,/muse/elements/jaw_clench
2021-11-26 22:30:15.197,0.9300153547651795,1.361176383860832,0,1.226727326119677,0.8926627408295701,0.6997665570761653,0,0.8420548429147727,0.9028378288990493,0.8343172413424622,0,1.3090271477342,1.25716788641138,0.2942250668241879,0,0.9760091068985217,1.314665113163506,0.1243717593503076,0,1.104253642986337,867.1062271062272,781.6849816849817,1485.604395604396,887.6556776556777,603.5897435897436,-0.798767,-0.107910,0.682861,-26.894073,14.759216,-2.228088,1,2,1,4,2,100.000000
2021-11-26 22:30:15.211,,,,,,,,,,,,,,,,,,,,,,,,,,,,,,,,,,,,,,/muse/elements/blink
2021-11-26 22:30:15.605,,,,,,,,,,,,,,,,,,,,,,,,,,,,,,,,,,,,,,/muse/elements/jaw_clench
2021-11-26 22:30:15.826,,,,,,,,,,,,,,,,,,,,,,,,,,,,,,,,,,,,,,/muse/elements/jaw_clench
2021-11-26 22:30:16.196,0.9300153547651795,1.485553781602023,0,1.226727326119677,0.8926627408295701,0.9206036043910497,0,0.8420548429147727,0.9028378288990493,0.8638533097852844,0,1.3090271477342,1.25716788641138,0.419993293235859,0,0.9760091068985217,1.314665113163506,0.2450878527415458,0,1.104253642986337,819.5604395604396,793.7728937728938,114.8351648351648,776.8498168498169,1002.893772893773,-0.773376,-0.257141,0.619751,2.033691,-2.370148,-3.633728,1,2,1,4,2,100.000000
2021-11-26 22:30:17.200,0.6585024302879851,1.28392705537815,0,0.7088469632479182,0.5483057736152716,0.4885545704949328,0,0.7487257633753105,0.9096488111222213,0.577066247655344,0,1.279778844126121,1.115196882225619,0.3899834487864182,0,0.9452806766475583,0.5816568214183211,0.05848880411089973,0,0.8089421754143857,803.8461538461539,769.5970695970697,390.4395604395605,782.893772893773,825.6043956043957,-0.755676,-0.284058,0.632996,9.809570,3.342133,-4.351501,1,1,1,2,1,100.000000
2021-11-26 22:30:17.672,,,,,,,,,,,,,,,,,,,,,,,,,,,,,,,,,,,,,,/muse/elements/blink
2021-11-26 22:30:18.196,0.7020588344254793,1.053974992501231,0,0.2962237430904621,0.7801695405474708,0.3125984007408391,0,0.5732036665269529,0.9351639196534149,0.5380108289391985,0,1.01270933496336,1.13590587295925,0.3628096698056535,0,0.9604788730673967,0.6469816685509622,-0.1801718857474175,0,0.5835490788885946,807.0695970695971,788.5347985347986,675.7142857142858,744.2124542124542,653.5531135531136,-0.769287,-0.312317,0.567810,6.886139,-1.831818,-2.564545,1,1,1,2,1,100.000000
2021-11-26 22:30:18.976,,,,,,,,,,,,,,,,,,,,,,,,,,,,,,,,,,,,,,/muse/elements/blink
2021-11-26 22:30:19.207,0.6481982261200984,0.5350328183540105,0,1.129511753824132,1.074673014350821,0.2215150198759438,0,1.173131216380025,1.152209399716169,0.4294114483971196,0,1.047945672863005,0.9308608284007811,0.2586538693113625,0,0.8521891213245217,0.6897353169718036,-0.2370123106634688,0,0.6695916208390394,824.7985347985348,802.2344322344322,1541.611721611722,792.967032967033,726.8864468864469,-0.796387,-0.296448,0.559143,14.445190,1.443024,-12.067566,1,1,1,4,1,100.000000
2021-11-26 22:30:19.762,,,,,,,,,,,,,,,,,,,,,,,,,,,,,,,,,,,,,,/muse/elements/blink
2021-11-26 22:30:20.196,0.6481982261200984,0.8156719761899178,0,1.449087457489446,1.074673014350821,0.186137597154429,0,1.360414072271574,1.152209399716169,0.3338956793600826,0,1.025144658174357,0.9308608284007811,0.2370866757797529,0,0.8511936054183917,0.6897353169718036,-0.2019285476928246,0,0.5988016115775425,813.5164835164835,917.0695970695971,1623.809523809524,774.4322344322345,832.8571428571429,-0.383240,0.127258,0.927246,48.629150,28.359528,-36.135406,1,1,1,4,1,100.000000
2021-11-26 22:30:20.311,,,,,,,,,,,,,,,,,,,,,,,,,,,,,,,,,,,,,,/muse/elements/blink
2021-11-26 22:30:20.617,,,,,,,,,,,,,,,,,,,,,,,,,,,,,,,,,,,,,,/muse/elements/jaw_clench
2021-11-26 22:30:21.196,0.6481982261200984,0.9361122975868152,0,1.662266022735311,1.074673014350821,0.1239138710271339,0,1.504458177313312,1.152209399716169,0.2322362169980222,0,0.9840415570052639,0.9308608284007811,0.162834956239275,0,0.8519477732681084,0.6897353169718036,-0.1538709262635764,0,0.4318518249173288,773.6263736263736,817.1428571428571,1639.120879120879,775.2380952380953,635.8241758241759,-0.693176,0.209900,0.680237,20.307007,9.674988,-26.475372,1,1,1,4,1,100.000000
2021-11-26 22:30:22.202,0.6481982261200984,1.452940406545423,0,1.452757211261197,1.074673014350821,0.8014927515688504,0,0.8827403977609106,1.152209399716169,0.6030792842591407,0,1.312296509885279,0.9308608284007811,0.2339606597187785,0,0.9130920197135116,0.6897353169718036,-0.1816563464138106,0,0.5189892758803882,811.0989010989011,742.1978021978023,0,774.8351648351648,1077.435897435897,-0.645691,0.201782,0.771790,2.482300,-42.326202,2.385101,1,1,1,2,1,100.000000
2021-11-26 22:30:23.195,1.592589984496445,2.037056589467076,0,1.375226170526114,0.9887547187441724,0.74747233784679,0,0.4810604311632389,1.386575351553546,1.038639397444776,0,1.222876970683095,1.175353342363658,0.3511073168568505,0,0.7918873930217145,0.9456908466474336,-0.03226059270887109,0,0.3739886330927072,821.1721611721612,844.1391941391942,1331.282051282051,808.2783882783883,740.989010989011,-0.277161,0.411194,0.874512,8.291779,-10.332947,1.674805,1,1,1,4,1,100.000000
2021-11-26 22:30:24.197,1.363873366023451,2.36064355901189,0,1.246051920303158,1.052056677400703,0.8818371697567237,0,0.5369259622717714,1.344768811740512,1.037334730922554,0,0.6152218322667613,1.319404539968758,0.5470015507976529,0,0.7911418161283065,1.222824238152478,-0.013303838380542,0,0.3219817490490397,810.6959706959707,750.2564102564103,89.45054945054946,786.5201465201466,791.3553113553114,-0.210083,0.395508,0.917908,4.381409,-2.960815,1.966400,1,1,1,4,1,100.000000
2021-11-26 22:30:25.195,1.188931096024783,2.36064355901189,0,1.117182817413871,0.8470121282646722,0.8818371697567237,0,0.8487437947399185,1.300596408680447,1.037334730922554,0,0.942989477920269,1.263972236042138,0.5470015507976529,0,0.7011988700888927,1.086496927270058,-0.013303838380542,0,0.3622129033412994,809.0842490842491,824.3956043956044,0,808.2783882783883,1083.882783882784,-0.166565,0.465576,0.900208,7.005768,-4.418793,-1.353302,1,1,1,4,1,100.000000
2021-11-26 22:30:26.200,1.376621249223846,2.36064355901189,0,1.364153294749868,0.7801542781870808,0.8818371697567237,0,1.087001302461284,1.055196915362806,1.037334730922554,0,1.1302284370531,1.323753208991782,0.5470015507976529,0,0.7626393337517215,1.073461119596641,-0.013303838380542,0,0.4958187947218596,814.7252747252747,643.4798534798535,26.59340659340659,799.4139194139194,783.2967032967033,-0.252258,0.457153,0.877869,8.104858,10.706787,-2.100983,1,1,1,2,1,100.000000
2021-11-26 22:30:27.195,0.9386902775146928,2.36064355901189,0,0.963716349853166,0.766492020200162,0.8818371697567237,0,0.7816679555920433,1.22646349807761,1.037334730922554,0,0.935016720761756,1.236971994280735,0.5470015507976529,0,0.7143106642213692,0.8943391036297832,-0.013303838380542,0,0.2866904419177671,798.6080586080586,1310.32967032967,596.3369963369963,793.7728937728938,776.0439560439561,-0.274841,0.464966,0.892944,3.656158,10.878754,-6.624451,1,1,4,4,1,100.000000
2021-11-26 22:30:28.196,0.8453329379511334,2.36064355901189,0,0.876642216203286,0.7224901716010594,0.8818371697567237,0,0.6442228379433513,1.262318717197145,1.037334730922554,0,0.963128161045866,0.9603905421364843,0.5470015507976529,0,0.6636957740126472,0.8220211474893552,-0.013303838380542,0,0.2134686144394377,832.4542124542124,908.2051282051282,535.0915750915751,780.4761904761905,774.4322344322345,-0.313232,0.413513,0.852173,2.706604,-12.030182,0.224304,1,1,4,4,1,100.000000
2021-11-26 22:30:29.202,0.8355143386007792,2.36064355901189,0,0.8130330220217429,0.748499085830145,0.8818371697567237,0,0.5793619525481947,1.336152130531479,1.037334730922554,0,0.7599708128262093,0.9806815505148612,0.5470015507976529,0,0.549460446514516,0.87539920607401,-0.013303838380542,0,0.08812413631767541,776.8498168498169,413.003663003663,844.5421245421246,794.1758241758242,874.7619047619048,-0.298279,0.400635,0.881531,4.291687,-5.046844,-1.293488,1,1,1,2,1,100.000000
2021-11-26 22:30:30.196,0.4972313835083835,2.36064355901189,0,0.7654910984308516,0.5525178557310232,0.8818371697567237,0,0.3261694279800712,1.272562211653946,1.037334730922554,0,0.7032758628733871,1.093477489109045,0.5470015507976529,0,0.4159807233939246,0.8324949509976839,-0.013303838380542,0,-0.09701478785283954,804.2490842490843,1071.794871794872,1358.681318681319,780.8791208791209,772.014652014652,-0.410706,0.374817,0.841370,9.061890,-20.135040,-5.076752,1,1,1,2,1,100.000000
2021-11-26 22:30:31.200,0.8169552078249361,2.36064355901189,0,0.7349873932568887,0.4343970523917803,0.8818371697567237,0,0.4513007791284562,0.8390404150295204,1.037334730922554,0,0.6124201062471578,1.104542583451961,0.5470015507976529,0,0.4713950683647747,0.9675714785813554,-0.013303838380542,0,0.1442326125834689,831.2454212454213,774.8351648351648,169.2307692307692,792.5641025641025,1006.923076923077,-0.402100,0.400208,0.834229,0.994415,4.187012,-2.826233,1,1,1,4,1,100.000000
2021-11-26 22:30:32.206,0.6325032012094172,2.36064355901189,0,0.5763776410729353,0.2480605250931307,0.8818371697567237,0,0.3065570147359744,1.001044172575764,1.037334730922554,0,0.7819410902167108,1.03550508480503,0.5470015507976529,0,0.5487216291427069,0.8047617141724028,-0.013303838380542,0,0.1715568488908956,812.7106227106227,856.2271062271062,574.5787545787546,788.1318681318681,723.6630036630037,-0.356201,0.461731,0.828674,6.856232,-7.155304,1.764526,1,1,1,4,1,100.000000
2021-11-26 22:30:33.184,,,,,,,,,,,,,,,,,,,,,,,,,,,,,,,,,,,,,,/muse/elements/blink
2021-11-26 22:30:33.196,0.5370589935651484,2.36064355901189,0,0.4470666804801027,0.720279624805503,0.8818371697567237,0,0.5615670741556319,1.103696022196472,1.037334730922554,0,0.9223789565140473,1.006031301989803,0.5470015507976529,0,0.5128586997819823,0.8018379018471272,-0.013303838380542,0,0.09925907110790083,850.5860805860806,1244.249084249084,930.3663003663004,840.1098901098901,834.8717948717949,-0.299866,0.440063,0.829590,5.158997,-15.349884,1.181335,1,1,1,4,1,100.000000
2021-11-26 22:30:34.195,0.7176833228275998,2.36064355901189,0,0.5771291382407959,0.8456939366039303,0.8818371697567237,0,0.5031501374143708,1.015424747592308,1.037334730922554,0,0.7997093073375661,0.922890970115661,0.5470015507976529,0,0.4883818705876162,0.8813441921582796,-0.013303838380542,0,-0.01012531806376835,763.956043956044,839.3040293040293,1623.809523809524,772.014652014652,908.6080586080586,-0.290344,0.480347,0.854065,-2.631836,-3.887939,2.729034,1,1,1,1,1,100.000000
2021-11-26 22:30:34.391,,,,,,,,,,,,,,,,,,,,,,,,,,,,,,,,,,,,,,/muse/elements/blink
2021-11-26 22:30:35.203,0.7744970303537606,2.36064355901189,0,0.6344054172300752,0.8170592419297671,0.8818371697567237,0,0.3998441047112496,1.138868966378327,1.037334730922554,0,0.6941040784672369,1.023031811593762,0.5470015507976529,0,0.543000100904582,0.8908540293467623,-0.013303838380542,0,-0.02311646345285818,804.2490842490843,920.6959706959707,576.1904761904763,815.5311355311355,784.1025641025641,-0.414551,0.295959,0.887939,2.422485,7.588959,-1.682281,1,1,1,2,1,100.000000
2021-11-26 22:30:35.608,,,,,,,,,,,,,,,,,,,,,,,,,,,,,,,,,,,,,,/muse/elements/blink
2021-11-26 22:30:36.196,1.481676100817054,2.36064355901189,0,1.216505259833925,1.341996278373057,0.8818371697567237,0,1.211236770886434,1.196868749804805,1.037334730922554,0,1.110983298258923,1.059469503901505,0.5470015507976529,0,0.7272463925484163,0.9242288540465269,-0.013303838380542,0,0.1961850706342306,823.5897435897436,958.1684981684982,1450.549450549451,791.7582417582418,860.2564102564103,-0.491394,0.259338,0.803162,15.992889,-12.785339,-12.904968,1,1,1,2,1,100.000000
2021-11-26 22:30:36.329,,,,,,,,,,,,,,,,,,,,,,,,,,,,,,,,,,,,,,/muse/elements/blink
2021-11-26 22:30:36.637,,,,,,,,,,,,,,,,,,,,,,,,,,,,,,,,,,,,,,/muse/elements/jaw_clench
2021-11-26 22:30:37.053,,,,,,,,,,,,,,,,,,,,,,,,,,,,,,,,,,,,,,/muse/elements/jaw_clench
2021-11-26 22:30:37.195,1.481676100817054,2.36064355901189,0,1.186391269876475,1.341996278373057,0.8818371697567237,0,1.214564482022523,1.196868749804805,1.037334730922554,0,1.118056334221315,1.059469503901505,0.5470015507976529,0,0.7254977412558985,0.9242288540465269,-0.013303838380542,0,0.2406789228035895,800.2197802197802,714.7985347985348,1611.721611721612,803.040293040293,878.3882783882784,-0.266418,0.414551,0.893311,1.024323,5.712280,1.278534,1,1,1,4,1,100.000000
2021-11-26 22:30:38.204,1.257707519885144,2.36064355901189,0,1.44414985360429,1.251884362751085,0.8818371697567237,0,0.8603555183678896,1.109873204785488,1.037334730922554,0,0.8452154402459457,1.173458634661398,0.5470015507976529,0,0.6868423448873747,0.9892780498983327,-0.013303838380542,0,0.5948887221363559,807.0695970695971,1624.615384615385,1623.809523809524,863.8827838827839,837.2893772893773,-0.251221,0.486206,0.902039,17.428436,-9.039459,2.968292,1,1,4,4,1,100.000000
2021-11-26 22:30:39.195,1.257707519885144,2.36064355901189,0,1.567584203346111,1.251884362751085,0.8818371697567237,0,0.9725824254894679,1.109873204785488,1.037334730922554,0,0.6767035397382818,1.173458634661398,0.5470015507976529,0,0.7281258657829738,0.9892780498983327,-0.013303838380542,0,0.658586214897067,860.6593406593407,755.4945054945055,607.2161172161173,837.2893772893773,680.5494505494506,-0.215088,0.433838,0.894775,15.237732,-11.304932,-8.403931,1,1,4,4,1,100.000000
2021-11-26 22:30:40.195,1.257707519885144,2.36064355901189,0,1.567584203346111,1.251884362751085,0.8818371697567237,0,0.9725824254894679,1.109873204785488,1.037334730922554,0,0.6767035397382818,1.173458634661398,0.5470015507976529,0,0.7281258657829738,0.9892780498983327,-0.013303838380542,0,0.658586214897067,897.3260073260074,714.7985347985348,1624.212454212454,805.0549450549451,975.0915750915751,-0.261353,0.447144,0.981934,-32.479248,-15.088196,43.761749,1,1,4,4,1,100.000000
2021-11-26 22:30:40.214,,,,,,,,,,,,,,,,,,,,,,,,,,,,,,,,,,,,,,/muse/elements/blink
2021-11-26 22:30:41.195,1.257707519885144,2.36064355901189,0,1.567584203346111,1.251884362751085,0.8818371697567237,0,0.9725824254894679,1.109873204785488,1.037334730922554,0,0.6767035397382818,1.173458634661398,0.5470015507976529,0,0.7281258657829738,0.9892780498983327,-0.013303838380542,0,0.658586214897067,738.1684981684982,773.6263736263736,533.0769230769231,782.4908424908425,731.7216117216118,-0.264648,0.432556,0.882080,1.218719,11.648865,-9.166565,1,2,1,4,2,100.000000
2021-11-26 22:30:42.195,1.257707519885144,1.224714692937148,0,1.567584203346111,1.251884362751085,0.4240946520061392,0,0.9725824254894679,1.109873204785488,0.7382583337613912,0,0.6767035397382818,1.173458634661398,0.4601928532146991,0,0.7281258657829738,0.9892780498983327,0.2068060783126384,0,0.658586214897067,794.981684981685,765.9706959706959,631.7948717948718,819.1575091575091,751.4652014652015,-0.313354,0.419739,0.821838,3.715973,-10.818939,-0.403748,1,2,1,4,2,100.000000
2021-11-26 22:30:43.195,1.257707519885144,1.258513448721444,0,1.585913347105205,1.251884362751085,0.3124020337839318,0,0.9625379126056544,1.109873204785488,0.7263606213174562,0,0.9132079743865367,1.173458634661398,0.2940599251930274,0,1.205794929458365,0.9892780498983327,-0.1405994361407109,0,1.326280935634564,803.8461538461539,800.6227106227107,456.923076923077,791.7582417582418,772.014652014652,-0.336365,0.386536,0.868652,2.534637,-4.246826,-2.549591,1,1,1,4,1,100.000000
2021-11-26 22:30:43.255,,,,,,,,,,,,,,,,,,,,,,,,,,,,,,,,,,,,,,/muse/elements/jaw_clench
2021-11-26 22:30:43.629,,,,,,,,,,,,,,,,,,,,,,,,,,,,,,,,,,,,,,/muse/elements/jaw_clench
2021-11-26 22:30:44.195,1.257707519885144,1.140032709625609,0,1.112090563205718,1.251884362751085,0.5044556873745407,0,0.6255214856828537,1.109873204785488,0.3387452033012459,0,0.8700954493646239,1.173458634661398,0.176486905895173,0,1.185614569618436,0.9892780498983327,-0.2384465631804162,0,1.282307497047152,797.8021978021978,773.2234432234433,595.934065934066,832.4542124542124,774.0293040293041,-0.298157,0.369934,0.895935,4.172058,-6.041260,-2.661743,1,1,1,4,1,100.000000
2021-11-26 22:30:44.550,,,,,,,,,,,,,,,,,,,,,,,,,,,,,,,,,,,,,,/muse/elements/jaw_clench
2021-11-26 22:30:45.169,,,,,,,,,,,,,,,,,,,,,,,,,,,,,,,,,,,,,,/muse/elements/jaw_clench
2021-11-26 22:30:45.201,1.257707519885144,1.31929757900552,0,0.6021416843676495,1.251884362751085,0.3996201857949251,0,0.6724885811504827,1.109873204785488,0.4052242724747931,0,0.9430986734737522,1.173458634661398,0.3033859081888652,0,1.086780912243283,0.9892780498983327,-0.05106616532275084,0,1.286360219835922,817.1428571428571,772.4175824175825,1625.018315018315,835.2747252747253,836.4835164835165,-0.335693,0.370789,0.852783,6.392670,-12.845154,0.874786,1,1,1,4,1,100.000000
2021-11-26 22:30:45.968,,,,,,,,,,,,,,,,,,,,,,,,,,,,,,,,,,,,,,/muse/elements/jaw_clench
2021-11-26 22:30:46.189,,,,,,,,,,,,,,,,,,,,,,,,,,,,,,,,,,,,,,/muse/elements/jaw_clench
2021-11-26 22:30:46.201,1.257707519885144,1.261560266313399,0,0.7528664755131094,1.251884362751085,0.5065717844321759,0,0.6265584559567154,1.109873204785488,0.486655187592464,0,0.9604504315875555,1.173458634661398,0.3157262174140538,0,1.09355488852718,0.9892780498983327,-0.1561378067634747,0,1.048893672166514,809.4871794871796,780.8791208791209,957.7655677655678,822.7838827838829,738.5714285714286,-0.337585,0.356384,0.873596,4.912262,-6.362762,-2.317810,1,1,1,4,1,100.000000
2021-11-26 22:30:47.007,,,,,,,,,,,,,,,,,,,,,,,,,,,,,,,,,,,,,,/muse/elements/jaw_clench
2021-11-26 22:30:47.195,0.51138950335228,0.3282866548636562,0,0.4513820126810336,0.6241786894349233,0.07298212606592702,0,0.4853063089303332,1.31265244077097,0.3458948546122828,0,0.9988902750548749,1.218851266438889,0.1389928020227071,0,1.075587951780758,1.401751263268191,-0.2585446889297114,0,1.032665269775974,786.5201465201466,784.9084249084249,927.948717948718,812.7106227106227,713.992673992674,-0.328857,0.365662,0.885986,4.366455,-3.327179,-1.106567,1,1,1,4,1,100.000000
2021-11-26 22:30:47.890,,,,,,,,,,,,,,,,,,,,,,,,,,,,,,,,,,,,,,/muse/elements/blink
2021-11-26 22:30:48.195,0.5073195502281147,0.84514951736929,0,0.6985104925539415,0.6782918845244301,0.1978299178773187,0,0.5127285033806106,1.342709627267491,0.6336110279131337,0,0.8787092483378371,1.106678703824389,0.1437218343946446,0,0.9906370674579027,1.321007852878353,-0.4628884087679791,0,0.9690452798238801,844.9450549450549,786.5201465201466,782.0879120879121,817.948717948718,678.9377289377289,-0.377441,0.354370,0.901855,6.063690,5.345917,-4.119720,1,1,1,4,1,100.000000
2021-11-26 22:30:48.508,,,,,,,,,,,,,,,,,,,,,,,,,,,,,,,,,,,,,,/muse/elements/jaw_clench
2021-11-26 22:30:49.198,0.6241259111733815,1.154826952847379,0,0.8422117225842847,0.7535930691809578,0.2519569740494003,0,0.6709362065293318,1.247479282645268,0.6396982805323441,0,0.7773156379839021,1.108032280312381,0.2713310642515312,0,0.8772819612096285,1.247536092167913,-0.2114304799773299,0,0.7929296982154301,786.1172161172161,789.7435897435897,817.948717948718,803.8461538461539,786.5201465201466,-0.357056,0.356628,0.880493,9.039459,-6.116028,-5.323486,1,1,1,4,1,100.000000
2021-11-26 22:30:49.866,,,,,,,,,,,,,,,,,,,,,,,,,,,,,,,,,,,,,,/muse/elements/jaw_clench
2021-11-26 22:30:49.956,,,,,,,,,,,,,,,,,,,,,,,,,,,,,,,,,,,,,,/muse/elements/blink
2021-11-26 22:30:50.195,0.8925075961300226,1.269763035819502,0,0.7442523548669586,0.9239258974178144,0.1579144927031679,0,0.5699445524134731,1.012001182266664,0.5171369964225599,0,0.72997886361167,1.372111311023395,0.2346811856056908,0,0.6949283210649991,1.357374059883516,-0.1324212510772568,0,0.884612510265147,890.4761904761905,821.978021978022,808.2783882783883,836.0805860805862,716.8131868131868,-0.235657,0.143616,0.985840,2.557068,9.869385,-8.620758,1,1,1,4,1,100.000000
2021-11-26 22:30:50.944,,,,,,,,,,,,,,,,,,,,,,,,,,,,,,,,,,,,,,/muse/elements/jaw_clench
2021-11-26 22:30:51.196,0.8925075961300226,1.842125628339432,0,0.8829652811117096,0.9239258974178144,0.6158952317220078,0,0.4535824136477533,1.012001182266664,0.5623873441394851,0,0.3508927442356941,1.372111311023395,0.267465955680353,0,0.6783340356392362,1.357374059883516,-0.2544347098978866,0,0.9894453561651131,842.9304029304029,784.9084249084249,1185.018315018315,798.2051282051282,690.6227106227107,-0.289978,0.082947,0.960327,5.121613,-6.512299,0.112152,1,1,1,4,1,100.000000
2021-11-26 22:30:51.964,,,,,,,,,,,,,,,,,,,,,,,,,,,,,,,,,,,,,,/muse/elements/jaw_clench
2021-11-26 22:30:52.143,,,,,,,,,,,,,,,,,,,,,,,,,,,,,,,,,,,,,,/muse/elements/blink
2021-11-26 22:30:52.196,0.3164824821388862,0.7519494514517076,0,0.09193733267205932,0.3713626864007069,0.2542269356432487,0,0.4018321537264414,1.43043553519112,0.5489807041788222,0,1.128149530811523,1.228274035207634,0.1250281551870703,0,1.189683383143408,1.41885714192099,-0.3684547996545378,0,1.248894574565337,736.959706959707,1624.212454212454,0,731.3186813186813,889.2673992673992,-0.322388,0.075989,0.953308,1.465454,-2.714081,-2.205658,1,1,1,4,1,100.000000
2021-11-26 22:30:52.296,,,,,,,,,,,,,,,,,,,,,,,,,,,,,,,,,,,,,,/muse/elements/jaw_clench
2021-11-26 22:30:52.474,,,,,,,,,,,,,,,,,,,,,,,,,,,,,,,,,,,,,,/muse/elements/blink
2021-11-26 22:30:52.761,,,,,,,,,,,,,,,,,,,,,,,,,,,,,,,,,,,,,,/muse/elements/jaw_clench
2021-11-26 22:30:53.195,0.2740247837148119,0.4190044548577593,0,-0.1348171078380833,0.4965760226336031,0.2507647256645489,0,0.3457771963382793,1.43043553519112,0.4716964162551778,0,1.057884645103915,1.180375565327602,0.1055832507424343,0,1.283465639756201,1.441044952878358,-0.2655488423981949,0,1.339941658094098,654.3589743589744,0,1624.212454212454,684.981684981685,694.6520146520147,-0.293274,0.037170,1.000183,2.557068,-29.473572,23.379974,1,1,4,4,1,100.000000
2021-11-26 22:30:53.372,,,,,,,,,,,,,,,,,,,,,,,,,,,,,,,,,,,,,,/muse/elements/blink
2021-11-26 22:30:54.195,0.2740247837148119,0.4190044548577593,0,-0.1348171078380833,0.4965760226336031,0.2507647256645489,0,0.3457771963382793,1.43043553519112,0.4716964162551778,0,1.057884645103915,1.180375565327602,0.1055832507424343,0,1.283465639756201,1.441044952878358,-0.2655488423981949,0,1.339941658094098,833.2600732600733,1008.937728937729,422.2710622710623,784.5054945054945,1013.772893772894,-0.075073,0.335022,0.970032,17.884521,-9.488068,-7.798309,1,1,4,4,1,100.000000
2021-11-26 22:30:54.739,,,,,,,,,,,,,,,,,,,,,,,,,,,,,,,,,,,,,,/muse/elements/blink
2021-11-26 22:30:54.828,,,,,,,,,,,,,,,,,,,,,,,,,,,,,,,,,,,,,,/muse/elements/jaw_clench
2021-11-26 22:30:55.195,0.2740247837148119,0.4190044548577593,0,-0.1348171078380833,0.4965760226336031,0.2507647256645489,0,0.3457771963382793,1.43043553519112,0.4716964162551778,0,1.057884645103915,1.180375565327602,0.1055832507424343,0,1.283465639756201,1.441044952878358,-0.2655488423981949,0,1.339941658094098,786.9230769230769,868.7179487179487,595.934065934066,812.7106227106227,754.2857142857143,-0.146484,0.274902,0.947266,5.129089,-3.357086,-5.764618,1,2,1,4,2,100.000000
2021-11-26 22:30:56.195,0.2740247837148119,1.224010958350645,0,0.9920945864698762,0.4965760226336031,-0.1022817805558756,0,0.681895951628219,1.43043553519112,0.2480355114075589,0,1.05488587490879,1.180375565327602,0.2163189488880971,0,1.000518573488454,1.441044952878358,-0.1286706936454683,0,0.8150932119286773,819.1575091575091,850.5860805860806,643.8827838827839,787.7289377289378,747.4358974358975,-0.165344,0.346924,0.923218,4.523468,-4.127197,-1.547699,1,1,1,4,1,100.000000
2021-11-26 22:30:57.198,1.12100661927231,1.119999630475231,0,0.895084827390357,0.9482646960269608,0.2340560810261861,0,0.8452983634761237,1.499627901499307,0.4764225285343934,0,1.300932763162751,1.36522391238134,0.1893327763045535,0,0.8515378876258964,1.000228579566012,-0.2321993626186879,0,0.8048808487293458,839.7069597069598,853.4065934065934,1044.798534798535,795.7875457875458,653.5531135531136,-0.234314,0.388916,0.867798,7.387085,-23.671570,-2.115936,1,1,1,4,1,100.000000
2021-11-26 22:30:58.160,,,,,,,,,,,,,,,,,,,,,,,,,,,,,,,,,,,,,,/muse/elements/jaw_clench
2021-11-26 22:30:58.195,0.8700369660872237,1.590996274046919,0,0.7822816530423702,0.9177825007745911,0.5550711901045662,0,0.8147909452990204,1.436848984928335,0.5807063030508037,0,1.32765591470266,1.375393157462069,0.105232356729985,0,0.6923859536885143,1.025004607103677,-0.2366737771502007,0,0.3764337411400253,861.0622710622711,255.4578754578755,1624.212454212454,778.8644688644689,843.7362637362637,-0.242310,0.327942,0.955139,1.697235,-9.061890,-6.362762,1,1,1,2,1,100.000000
2021-11-26 22:30:58.669,,,,,,,,,,,,,,,,,,,,,,,,,,,,,,,,,,,,,,/muse/elements/blink
2021-11-26 22:30:59.195,0.8221799675147408,1.488693195505117,0,1.039546041153044,0.9873330558102507,0.5487290315564342,0,0.793303930215039,1.081579974221192,0.4961657559927427,0,1.091665530473046,1.306890879192157,0.07407164897966953,0,0.8392961529514089,0.9721428656584898,-0.2219751818315065,0,0.6391938182230514,830.4395604395604,822.3809523809524,662.4175824175825,811.0989010989011,585.0549450549451,-0.650391,-0.039001,0.775452,5.936584,6.609497,3.910370,1,1,1,2,1,100.000000
2021-11-26 22:31:00.195,0.8221799675147408,0.5326180894067534,0,1.254707365585101,0.9873330558102507,0.1122059908823011,0,0.9597063849411107,1.081579974221192,0.6160286671088639,0,0.9897222994868008,1.306890879192157,0.03604209220457322,0,0.8858406676896847,0.9721428656584898,-0.4563461043447558,0,0.8299519532018327,763.5531135531136,783.6996336996338,887.6556776556777,780.8791208791209,718.021978021978,-0.555969,-0.000671,0.853455,4.478607,-5.727234,-2.115936,1,1,1,4,1,100.000000
2021-11-26 22:31:00.920,,,,,,,,,,,,,,,,,,,,,,,,,,,,,,,,,,,,,,/muse/elements/blink
2021-11-26 22:31:01.009,,,,,,,,,,,,,,,,,,,,,,,,,,,,,,,,,,,,,,/muse/elements/jaw_clench
2021-11-26 22:31:01.195,1.072717472350453,0.8152648282811149,0,1.159040170141895,0.8225214194638534,0.107098042471038,0,0.4669487521125139,0.9733474278536763,0.5933073971559515,0,1.141299869821808,1.063160542440363,0.01167689799506717,0,0.852038602530489,1.28905527657477,-0.5096342227497843,0,0.9850442004873676,830.4395604395604,773.2234432234433,1611.318681318681,761.5384615384615,782.0879120879121,-0.390137,0.214111,0.876221,24.419250,-20.277100,-3.005676,1,1,1,4,1,100.000000
2021-11-26 22:31:02.197,1.027843627538489,1.09152708325262,0,1.07016180044271,0.8860089124978799,0.3981472863817599,0,0.4540888388728851,0.9733474278536763,0.5134280075775558,0,0.9174462632991522,1.043833033930277,0.06294679633271139,0,0.7246943207853858,1.255358790046123,-0.5351433087128493,0,0.7539835741492957,926.3369963369963,797.8021978021978,741.7948717948718,776.0439560439561,691.4285714285714,-0.327637,0.396606,0.823975,16.583557,-22.378082,3.828125,1,1,1,4,1,100.000000
2021-11-26 22:31:03.197,1.027843627538489,0.8476026823289882,0,1.07016180044271,0.8860089124978799,-0.03256607617046333,0,0.4540888388728851,0.9733474278536763,0.1284897866711957,0,0.9174462632991522,1.043833033930277,0.5342892141669303,0,0.7246943207853858,1.255358790046123,0.1511034695144548,0,0.7539835741492957,840.1098901098901,780.4761904761905,937.2161172161173,820.3663003663004,727.2893772893773,-0.217896,0.490540,0.828918,0.403748,-2.743988,-2.751465,1,1,1,2,1,100.000000
2021-11-26 22:31:04.204,1.027843627538489,0.7132734149414697,0,1.07016180044271,0.8860089124978799,-0.05237110956348833,0,0.4540888388728851,0.9733474278536763,0.4056997751328998,0,0.9174462632991522,1.043833033930277,0.6039006693942001,0,0.7246943207853858,1.255358790046123,0.3927224457703639,0,0.7539835741492957,716.8131868131868,766.7765567765568,794.1758241758242,867.1062271062272,818.3516483516484,-0.597290,0.220459,0.769592,-15.312500,-35.058746,6.175842,1,2,1,2,2,100.000000
2021-11-26 22:31:05.209,1.027843627538489,0.9959038979752262,0,1.07016180044271,0.8860089124978799,0.3430279211483356,0,0.4540888388728851,0.9733474278536763,0.9548597412590062,0,0.9174462632991522,1.043833033930277,0.5280471910569474,0,0.7246943207853858,1.255358790046123,0.1775110923773424,0,0.7539835741492957,910.2197802197802,786.5201465201466,1050.842490842491,811.9047619047619,751.0622710622711,-0.574097,0.081482,0.848145,2.160797,5.330963,-7.536621,1,2,1,2,2,100.000000
2021-11-26 22:31:06.196,1.027843627538489,0.8091709725891129,0,1.07016180044271,0.8860089124978799,0.1794491965810559,0,0.4540888388728851,0.9733474278536763,0.9449002031768546,0,0.9174462632991522,1.043833033930277,0.4005223518840007,0,0.7246943207853858,1.255358790046123,0.1460636691685625,0,0.7539835741492957,886.8498168498169,795.7875457875458,782.893772893773,780.0732600732601,709.9633699633699,-0.559143,0.081238,0.863037,6.138458,0.366364,-4.411316,1,2,1,2,2,100.000000
2021-11-26 22:31:07.199,1.027843627538489,0.5213865463752844,0,0.6704831673720854,0.8860089124978799,0.007902508118010394,0,0.3235781484873591,0.9733474278536763,0.2719035897551581,0,0.8754408537641657,1.043833033930277,0.2439676854271535,0,1.403783547954572,1.255358790046123,0.26189633150509,0,1.669526819961615,888.8644688644689,798.2051282051282,816.7399267399268,812.3076923076924,764.3589743589744,-0.546814,0.101501,0.864990,10.138550,4.710388,-8.359070,1,1,1,2,1,100.000000
2021-11-26 22:31:08.206,1.027843627538489,1.23134488612185,0,0.6554693458619837,0.8860089124978799,0.6588592832209034,0,0.3911348275410437,0.9733474278536763,0.4369539883787353,0,0.8754408537641657,1.043833033930277,0.4982139873900656,0,1.440397060742,1.255358790046123,0.2645871924223093,0,1.662356107139009,661.2087912087912,765.5677655677656,998.4615384615385,819.1575091575091,816.7399267399268,-0.473267,0.131836,0.891541,-5.114136,-15.514374,-16.060181,1,1,1,2,1,100.000000
2021-11-26 22:31:09.195,1.027843627538489,1.290187703244971,0,0.6554693458619837,0.8860089124978799,0.6095181126630135,0,0.3911348275410437,0.9733474278536763,0.5545307393376131,0,0.8754408537641657,1.043833033930277,0.432100122553738,0,1.440397060742,1.255358790046123,0.2140088936339008,0,1.662356107139009,836.8864468864469,786.5201465201466,755.0915750915751,846.1538461538462,727.2893772893773,-0.415466,-0.063721,0.924316,2.609406,-5.689850,-2.549591,1,1,1,4,1,100.000000
2021-11-26 22:31:10.195,1.027843627538489,0.5986241834453957,0,1.061818766884757,0.8860089124978799,-0.1272933023202123,0,0.8357121202519888,0.9733474278536763,0.3749636156801623,0,0.9875532408249692,1.043833033930277,0.4518141702604715,0,1.329866953459021,1.255358790046123,0.1927801233722273,0,1.031045728824121,834.8717948717949,753.0769230769231,5.238095238095238,964.2124542124542,772.8205128205128,-0.357300,0.145081,0.909729,-46.408539,-25.488434,176.946106,1,1,1,4,1,100.000000
2021-11-26 22:31:10.252,,,,,,,,,,,,,,,,,,,,,,,,,,,,,,,,,,,,,,/muse/elements/blink
2021-11-26 22:31:11.201,1.027843627538489,1.331321961389514,0,0.7927964421376922,0.8860089124978799,0.5517633262624937,0,0.4877771951259882,0.9733474278536763,0.7149823196730229,0,0.867451112143386,1.043833033930277,0.6528216329893878,0,1.36841645364347,1.255358790046123,0.2652945330453568,0,1.127534062632827,700.6959706959707,778.8644688644689,614.8717948717949,787.7289377289378,675.3113553113553,-0.259888,0.121521,1.030823,5.921631,21.174316,-6.250610,1,1,1,4,1,100.000000
2021-11-26 22:31:12.195,1.027843627538489,1.059539766262854,0,0.7927964421376922,0.8860089124978799,0.3079423156215483,0,0.4877771951259882,0.9733474278536763,0.6827958810503207,0,0.867451112143386,1.043833033930277,0.567764029964666,0,1.36841645364347,1.255358790046123,0.2539733836555078,0,1.127534062632827,759.92673992674,769.5970695970697,767.1794871794872,798.6080586080586,777.6556776556777,-0.303955,-0.045349,0.936035,-6.998291,16.164856,-9.293671,1,1,1,2,1,100.000000
2021-11-26 22:31:13.195,1.027843627538489,0.5370063988137291,0,0.7927964421376922,0.8860089124978799,0.2843211017255428,0,0.4877771951259882,0.9733474278536763,0.6126245366419625,0,0.867451112143386,1.043833033930277,0.3169882332581778,0,1.36841645364347,1.255358790046123,0.09640130455756515,0,1.127534062632827,769.1941391941392,779.2673992673992,1521.465201465202,801.025641025641,863.8827838827839,-0.467041,0.058350,0.885742,15.230255,11.873169,3.252411,1,2,1,2,2,100.000000
2021-11-26 22:31:14.098,,,,,,,,,,,,,,,,,,,,,,,,,,,,,,,,,,,,,,/muse/elements/blink
2021-11-26 22:31:14.199,1.027843627538489,0.2872965473494521,0,0.7927964421376922,0.8860089124978799,-0.08704238571983761,0,0.4877771951259882,0.9733474278536763,0.4307663654100461,0,0.867451112143386,1.043833033930277,0.3999818430825105,0,1.36841645364347,1.255358790046123,0.1523805498736705,0,1.127534062632827,797.8021978021978,801.025641025641,842.5274725274726,811.0989010989011,727.6923076923077,-0.293274,0.160706,0.911377,8.979645,-9.458160,-3.439331,1,2,1,4,2,100.000000
2021-11-26 22:31:15.203,1.027843627538489,1.091830488602014,0,0.7927964421376922,0.8860089124978799,0.3328476849863369,0,0.4877771951259882,0.9733474278536763,0.4479022133026382,0,0.867451112143386,1.043833033930277,0.3801110869825802,0,1.36841645364347,1.255358790046123,0.1234748815789359,0,1.127534062632827,743.4065934065934,790.5494505494506,838.4981684981685,747.8388278388279,899.3406593406594,-0.271240,0.189392,0.931824,10.235748,-7.431946,-5.914154,1,2,1,4,2,100.000000
2021-11-26 22:31:15.300,,,,,,,,,,,,,,,,,,,,,,,,,,,,,,,,,,,,,,/muse/elements/jaw_clench
2021-11-26 22:31:15.542,,,,,,,,,,,,,,,,,,,,,,,,,,,,,,,,,,,,,,/muse/elements/jaw_clench
2021-11-26 22:31:15.830,,,,,,,,,,,,,,,,,,,,,,,,,,,,,,,,,,,,,,/muse/elements/jaw_clench
2021-11-26 22:31:16.070,,,,,,,,,,,,,,,,,,,,,,,,,,,,,,,,,,,,,,/muse/elements/blink
2021-11-26 22:31:16.195,1.027843627538489,0.9996570499214258,0,1.130932320519631,0.8860089124978799,0.1854950169351338,0,0.7873960716531012,0.9733474278536763,0.6047250050165196,0,1.287489923264556,1.043833033930277,0.1882309048361689,0,1.143670826813233,1.255358790046123,-0.03521072756871706,0,1.151526856859904,815.1282051282052,810.6959706959707,1579.084249084249,790.952380952381,832.4542124542124,-0.647156,0.397827,0.724121,12.067566,13.697510,0.067291,1,1,1,4,1,100.000000
2021-11-26 22:31:17.195,1.027843627538489,0.5891073445603836,0,0.8702466367234063,0.8860089124978799,0.1855098690235606,0,0.655178207612174,0.9733474278536763,0.443253033000939,0,1.174246728693968,1.043833033930277,0.1268594728927185,0,0.9861803031825365,1.255358790046123,-0.002333957385757474,0,1.088661440049737,805.8608058608058,799.8168498168499,836.8864468864469,798.6080586080586,691.025641025641,-0.675415,0.490417,0.593628,10.452576,-3.514099,0.336456,1,1,1,4,1,100.000000
2021-11-26 22:31:17.988,,,,,,,,,,,,,,,,,,,,,,,,,,,,,,,,,,,,,,/muse/elements/jaw_clench
2021-11-26 22:31:18.195,1.027843627538489,0.7505122833737166,0,1.028629565446568,0.8860089124978799,0.2621259254064082,0,0.7608476923533678,0.9733474278536763,0.7551743017334123,0,1.374287952077085,1.043833033930277,0.6441317209323002,0,1.104766593223288,1.255358790046123,0.5870523339354128,0,1.314262380415339,782.893772893773,771.2087912087912,838.901098901099,771.6117216117216,747.4358974358975,-0.685913,0.475891,0.570068,10.377808,-7.693634,-7.043152,1,1,1,2,1,100.000000
2021-11-26 22:31:18.361,,,,,,,,,,,,,,,,,,,,,,,,,,,,,,,,,,,,,,/muse/elements/jaw_clench
2021-11-26 22:31:18.604,,,,,,,,,,,,,,,,,,,,,,,,,,,,,,,,,,,,,,/muse/elements/jaw_clench
2021-11-26 22:31:19.195,1.027843627538489,0.8326738153974738,0,0.673576571854808,0.8860089124978799,0.5181802369302915,0,0.6615111237733241,0.9733474278536763,0.8244432319596722,0,1.400332277402167,1.043833033930277,0.4618651462518461,0,1.072646027412901,1.255358790046123,0.4408419997452075,0,1.077135936702051,833.2600732600733,794.1758241758242,0,800.6227106227107,655.9706959706959,-0.414856,0.523926,0.763977,-4.089813,-23.836060,6.706696,1,1,1,2,1,100.000000
2021-11-26 22:31:19.578,,,,,,,,,,,,,,,,,,,,,,,,,,,,,,,,,,,,,,/muse/elements/blink
2021-11-26 22:31:20.201,1.027843627538489,1.649263055107683,0,0.8087982348451341,0.8860089124978799,0.890173951251625,0,0.8865907590228252,0.9733474278536763,1.021149175601659,0,1.179015005392455,1.043833033930277,0.5068792999210003,0,1.038250365395041,1.255358790046123,-0.09397790998665741,0,0.6229931850262093,794.5787545787546,783.6996336996338,386.8131868131868,796.5934065934066,701.9047619047619,-0.281616,0.573669,0.782288,4.426270,-6.841278,0.276642,1,1,1,2,1,100.000000
2021-11-26 22:31:21.195,0.495671288681145,1.546592816675853,0,0.4089459920602559,0.1128293613554491,0.8365338442906569,0,0.1680585959473318,0.7635367413582896,0.9849964017863522,0,1.093153878514753,1.172931339739409,0.3951476795895386,0,0.7907725940778138,0.9355137399299005,-0.2426758792312686,0,0.41891925199281,817.5457875457876,790.952380952381,27.8021978021978,773.2234432234433,767.1794871794872,-0.203369,0.566223,0.811584,3.626251,-7.259979,-0.530853,1,1,1,2,1,100.000000
2021-11-26 22:31:22.195,0.294285453163057,0.7376068304545387,0,0.009051079796257966,0.3461066076912819,0.4690933901805702,0,0.3384548209901551,0.9425442683423906,0.6534023899955316,0,0.8551022906564174,1.270759343733845,0.096881667330555,0,0.6610437340704758,0.9907513960308966,-0.3058019610551598,0,0.38087827819512,815.5311355311355,786.1172161172161,427.5091575091575,786.5201465201466,833.6630036630037,-0.183472,0.557678,0.809937,6.220703,3.043060,-1.704712,1,1,1,2,1,100.000000
2021-11-26 22:31:23.203,0.755933803463737,0.9833917648864435,0,0.440896285556111,0.746800765597104,0.2957066288548954,0,0.5830410052289771,1.22081425545231,0.3649545040417361,0,0.707927956830652,1.272962173742124,0.06865479233548422,0,0.7276178289122244,1.056627135440054,-0.3407785047829306,0,0.6490465788441989,781.2820512820513,809.4871794871796,655.5677655677656,799.4139194139194,676.5201465201466,-0.204163,0.559753,0.810669,4.785156,-3.895416,0.441132,1,1,1,4,1,100.000000
2021-11-26 22:31:24.194,0.8697569180315233,0.8685692838557424,0,0.5700053819868893,0.7252220018718023,0.05741459283480835,0,0.6367231446928227,1.330456072645616,0.4073802691181698,0,0.9832372895267704,1.183576157138376,0.1044102142858664,0,0.9136207159754335,1.080819078554081,-0.2568300943568095,0,0.6011638939318592,792.967032967033,806.6666666666667,467.3992673992674,790.5494505494506,802.2344322344322,-0.197388,0.566467,0.815491,4.650574,-3.274841,-2.317810,1,1,1,2,1,100.000000
2021-11-26 22:31:25.195,0.419031197304927,0.5524459173967015,0,0.4881190473918387,0.5356961311021956,0.3617622885689601,0,0.4129747277519308,1.21091804118111,0.6420423888522655,0,0.9310229083681861,1.152738679273841,0.1644358235512685,0,0.7410898834349962,0.9682944484772189,-0.3768492421945582,0,0.3044128071010712,823.1868131868132,806.2637362637363,691.025641025641,803.040293040293,784.9084249084249,-0.224365,0.576233,0.781616,4.987030,-2.758942,-2.302856,1,1,1,4,1,100.000000
2021-11-26 22:31:25.667,,,,,,,,,,,,,,,,,,,,,,,,,,,,,,,,,,,,,,/muse/elements/blink
2021-11-26 22:31:25.667,,,,,,,,,,,,,,,,,,,,,,,,,,,,,,,,,,,,,,/muse/elements/jaw_clench
2021-11-26 22:31:26.195,0.3561459955896448,1.142058330924345,0,0.5849570629364115,0.3673428046438723,0.6224395624644424,0,0.4748546917425964,1.188563914920126,0.6618553213196123,0,0.516125465575515,1.323376838126382,0.3638730678363511,0,0.7040998312977799,1.029851142365035,-0.1729990520529975,0,0.4939060146179575,808.2783882783883,1021.831501831502,571.3553113553114,807.4725274725275,800.6227106227107,-0.130188,0.173157,0.990845,-1.001892,-1.016846,0.284119,1,1,1,4,1,100.000000
2021-11-26 22:31:27.195,0.4437545398663379,1.316295074349948,0,0.587679875067969,0.4183031521510218,0.6057967649879218,0,0.4763398683944332,1.188563914920126,0.3481007932783895,0,0.1687009803051482,1.419139491261837,0.6017971943369625,0,0.6740192520259201,1.070018818619565,-0.1277277660421947,0,0.5833304908972291,800.2197802197802,766.7765567765568,269.5604395604396,799.0109890109891,1075.421245421245,-0.133850,0.134705,0.989075,3.835602,-4.904785,-2.370148,1,1,1,2,1,100.000000
2021-11-26 22:31:28.195,1.123455892081774,1.316295074349948,0,0.9162952359195708,0.7659761297288893,0.6057967649879218,0,0.478827806013605,1.121226986727403,0.3481007932783895,0,0.9698827472001366,1.156492546801805,0.6017971943369625,0,0.7938854095274767,0.728896982174427,-0.1277277660421947,0,0.591771543906069,800.6227106227107,682.5641025641025,297.7655677655678,793.7728937728938,726.4835164835165,-0.140503,0.139221,0.985229,4.351501,-5.413208,-2.781372,1,1,1,2,1,100.000000
2021-11-26 22:31:29.196,1.019519364662751,1.316295074349948,0,0.710609283155795,0.8899310428984456,0.6057967649879218,0,0.411651110211968,1.250873899435742,0.3481007932783895,0,0.6830769668944427,1.029082143179845,0.6017971943369625,0,0.6823967787949791,0.8026535655769171,-0.1277277660421947,0,0.4655899515373882,809.8901098901099,721.2454212454213,323.1501831501832,823.5897435897436,716.8131868131868,-0.129211,0.132507,0.996826,5.166473,-5.196381,-1.831818,1,1,1,2,1,100.000000
2021-11-26 22:31:30.199,0.5904345089145951,1.316295074349948,0,0.6662391961804455,0.5803311557857834,0.6057967649879218,0,0.6089222865568804,1.090944902995624,0.3481007932783895,0,0.7165780364458707,1.017521645948628,0.6017971943369625,0,0.6339769936787278,0.7218677701180815,-0.1277277660421947,0,0.5632598581566471,820.3663003663004,901.3553113553114,366.6666666666667,806.2637362637363,880.8058608058608,-0.126648,0.144104,0.978516,3.843079,-13.914337,-0.680389,1,1,1,2,1,100.000000
2021-11-26 22:31:30.869,,,,,,,,,,,,,,,,,,,,,,,,,,,,,,,,,,,,,,/muse/elements/jaw_clench
2021-11-26 22:31:31.195,0.7333678788911371,1.316295074349948,0,0.5163829253197232,0.5406519551544298,0.6057967649879218,0,0.4884422211858672,1.058634482827046,0.3481007932783895,0,0.9380850117288844,0.9070027748790909,0.6017971943369625,0,0.61653493996438,0.5965371618987958,-0.1277277660421947,0,0.4072978590843266,815.5311355311355,590.6959706959707,589.4871794871796,795.3846153846154,673.6996336996338,-0.147949,0.146179,1.000549,3.289795,-6.347809,-2.422485,1,1,1,2,1,100.000000
2021-11-26 22:31:32.195,0.8606100043882238,1.316295074349948,0,0.7713133106633486,0.5153648382047095,0.6057967649879218,0,0.4554660797664293,0.84431761237616,0.3481007932783895,0,0.916924613988117,0.8045709945433552,0.6017971943369625,0,0.6367536361616224,0.7523973782686063,-0.1277277660421947,0,0.3153322337854045,784.5054945054945,974.2857142857143,641.0622710622711,785.3113553113553,635.8241758241759,-0.145752,0.127563,0.989624,4.882355,-4.568329,-1.121521,1,1,2,2,1,100.000000
2021-11-26 22:31:33.194,0.4342738640604435,1.316295074349948,0,0.4520535454576173,0.5081741873073113,0.6057967649879218,0,0.4690257353432791,0.9612826913889123,0.3481007932783895,0,0.947480038946279,0.9289075780999637,0.6017971943369625,0,0.7938262543634869,0.8254489742272291,-0.1277277660421947,0,0.4351716001825853,807.8754578754579,830.0366300366301,495.2014652014652,805.0549450549451,749.047619047619,-0.272583,0.137146,0.970703,7.439423,-5.330963,-4.815063,1,1,2,2,1,100.000000
2021-11-26 22:31:34.194,0.7479169372122919,1.316295074349948,0,0.6717713079287515,0.8906804019943475,0.6057967649879218,0,0.8733111574678299,1.222839830556129,0.3481007932783895,0,1.234566037082825,1.094858898244127,0.6017971943369625,0,0.7544292222457026,0.5500141423422941,-0.1277277660421947,0,0.385824419728336,787.3260073260074,1043.186813186813,323.956043956044,809.4871794871796,685.3846153846154,-0.204346,0.140625,0.967896,4.157104,-5.024414,-3.147736,1,1,1,2,1,100.000000
2021-11-26 22:31:34.613,,,,,,,,,,,,,,,,,,,,,,,,,,,,,,,,,,,,,,/muse/elements/blink
2021-11-26 22:31:35.197,0.6951822662146028,1.316295074349948,0,0.6783043653133773,0.9623517962175813,0.6057967649879218,0,0.9171989264240602,1.207591757444294,0.3481007932783895,0,1.234093485843083,0.9801525192204146,0.6017971943369625,0,0.8089402419111393,0.3349641894145318,-0.1277277660421947,0,0.1935775182272236,827.6190476190476,1038.351648351648,0,804.6520146520147,732.9304029304029,-0.340027,0.461853,0.841492,1.031799,2.519684,-0.074768,1,1,2,2,1,100.000000
2021-11-26 22:31:36.195,0.7642263323300063,1.316295074349948,0,0.6153205281738595,0.9498111788890551,0.6057967649879218,0,0.5795424054860175,1.038328165150131,0.3481007932783895,0,0.6820082616978077,0.8847366650992673,0.6017971943369625,0,0.5409666009031165,0.2996479995863356,-0.1277277660421947,0,0.4329584653787295,816.3369963369963,862.2710622710623,860.2564102564103,786.5201465201466,842.5274725274726,-0.350464,0.463684,0.861145,-0.411224,-19.865875,5.951538,1,1,2,4,1,100.000000
2021-11-26 22:31:36.450,,,,,,,,,,,,,,,,,,,,,,,,,,,,,,,,,,,,,,/muse/elements/jaw_clench
2021-11-26 22:31:37.195,0.6818441544639053,1.316295074349948,0,1.050721571688224,0.6247590589266184,0.6057967649879218,0,0.5954917989445132,1.182846159605319,0.3481007932783895,0,0.7547897402927316,1.078491928795002,0.6017971943369625,0,0.8733843096801505,1.027275058795873,-0.1277277660421947,0,0.8141339354081248,765.9706959706959,844.5421245421246,1072.600732600733,803.4432234432235,718.4249084249085,-0.071838,0.056946,0.985962,-14.033966,8.538513,-5.420685,1,1,2,4,1,100.000000
2021-11-26 22:31:37.243,,,,,,,,,,,,,,,,,,,,,,,,,,,,,,,,,,,,,,/muse/elements/jaw_clench
2021-11-26 22:31:37.856,,,,,,,,,,,,,,,,,,,,,,,,,,,,,,,,,,,,,,/muse/elements/jaw_clench
2021-11-26 22:31:38.195,0.7393475578772509,1.316295074349948,0,1.465083176857014,0.6975967156105782,0.6057967649879218,0,0.7311669814186248,1.165086073979438,0.3481007932783895,0,0.6277266269383966,1.038883092784225,0.6017971943369625,0,1.142063383935396,1.096428570585365,-0.1277277660421947,0,1.156016524038742,802.2344322344322,796.1904761904763,1524.285714285714,811.9047619047619,690.2197802197802,-0.283630,0.180664,0.919617,13.413391,-4.351501,1.929016,1,1,1,4,1,100.000000
2021-11-26 22:31:39.076,,,,,,,,,,,,,,,,,,,,,,,,,,,,,,,,,,,,,,/muse/elements/blink
2021-11-26 22:31:39.195,0.7393475578772509,1.352529956260763,0,1.465083176857014,0.6975967156105782,0.7166610082438376,0,0.7311669814186248,1.165086073979438,0.2983461189743725,0,0.6277266269383966,1.038883092784225,0.3970153438122343,0,1.142063383935396,1.096428570585365,-0.04013295675941769,0,1.156016524038742,830.8424908424909,907.8021978021978,0,807.0695970695971,964.6153846153846,-0.162720,0.012878,0.988281,-2.863617,-9.525452,-0.239258,1,1,1,4,1,100.000000
2021-11-26 22:31:39.230,,,,,,,,,,,,,,,,,,,,,,,,,,,,,,,,,,,,,,/muse/elements/jaw_clench
2021-11-26 22:31:40.208,0.7393475578772509,1.380981035286624,0,1.465083176857014,0.6975967156105782,0.6393887717180746,0,0.7311669814186248,1.165086073979438,0.1875660964661838,0,0.6277266269383966,1.038883092784225,0.3047307389418927,0,1.142063383935396,1.096428570585365,-0.1722264946271257,0,1.156016524038742,787.7289377289378,726.8864468864469,0,783.2967032967033,675.7142857142858,-0.180359,-0.032715,0.998230,2.863617,-11.043243,-3.222504,1,2,4,4,2,100.000000
2021-11-26 22:31:41.195,0.437098470360569,1.380981035286624,0,0.2553161794973761,-0.0598552310021617,0.6393887717180746,0,0.578594083815963,1.074757432814694,0.1875660964661838,0,1.192204063961151,0.8016375438422745,0.3047307389418927,0,0.6387982589322824,0.2484157050940118,-0.1722264946271257,0,0.5270993798591788,821.1721611721612,825.6043956043957,766.7765567765568,830.0366300366301,734.5421245421246,-0.179199,-0.033569,0.993896,5.712280,-8.972168,-2.960815,1,1,1,2,1,100.000000
2021-11-26 22:31:42.194,0.8302968485902641,1.493664642864911,0,0.948105420909797,0.3842445294962631,0.8448065567032975,0,0.319979253285547,1.155609815472261,0.9589205215969479,0,0.9385195057200588,0.9686204804867303,0.6122923568994565,0,0.6840490437127771,0.4268274891012198,-0.2410289030667807,0,0.4627083901513466,803.4432234432235,431.1355311355312,755.0915750915751,793.7728937728938,800.2197802197802,-0.198792,-0.024048,0.991882,3.656158,-7.499237,-1.899109,1,1,1,2,1,100.000000
2021-11-26 22:31:43.198,0.8025709308252535,1.493664642864911,0,0.8598848301950381,0.5102060454948046,0.8448065567032975,0,0.2249662230672534,1.071766650209399,0.9589205215969479,0,0.9675123676825201,0.7777113231085057,0.6122923568994565,0,0.6208215022153529,0.3695571578138877,-0.2410289030667807,0,0.2576877020203157,788.5347985347986,950.9157509157509,455.7142857142857,774.0293040293041,732.1245421245421,-0.205811,-0.006165,0.984314,8.089905,-10.317993,-2.302856,1,1,4,2,1,100.000000
2021-11-26 22:31:43.232,,,,,,,,,,,,,,,,,,,,,,,,,,,,,,,,,,,,,,/muse/elements/jaw_clench
2021-11-26 22:31:43.473,,,,,,,,,,,,,,,,,,,,,,,,,,,,,,,,,,,,,,/muse/elements/jaw_clench
2021-11-26 22:31:44.194,0.7903059974682775,1.493664642864911,0,0.5682284596461644,0.419312454426082,0.8448065567032975,0,0.3962028405708971,1.16628586971224,0.9589205215969479,0,0.9931312446112116,0.7546710790079132,0.6122923568994565,0,0.4023535264260866,0.4092245937258109,-0.2410289030667807,0,0.1027302653318038,800.2197802197802,981.1355311355312,539.5238095238095,788.1318681318681,789.7435897435897,-0.196655,0.023560,0.986633,4.478607,-3.551483,0.351410,1,1,4,2,1,100.000000
2021-11-26 22:31:45.194,0.5330894805099512,1.493664642864911,0,0.4242631143858733,0.1624800273272813,0.8448065567032975,0,0.1143085441640524,1.023731036869182,0.9589205215969479,0,0.9056291644958214,0.5993579413740269,0.6122923568994565,0,0.3935779205118216,0.3943883334652949,-0.2410289030667807,0,-0.08518532122098098,805.0549450549451,785.7142857142858,1111.282051282051,803.4432234432235,678.9377289377289,-0.200073,0.014160,0.989380,4.134674,-5.114136,-3.671112,1,1,2,2,1,100.000000
2021-11-26 22:31:46.196,-0.04485873306146162,1.493664642864911,0,0.1421094679607324,0.01025541182351824,0.8448065567032975,0,0.3647847348590955,0.7391202898919941,0.9589205215969479,0,1.038809667027704,0.4601226705769789,0.6122923568994565,0,0.5685632990466686,0.361822694878914,-0.2410289030667807,0,0.08634569194887008,828.4249084249085,749.047619047619,463.7728937728938,821.1721611721612,829.2307692307693,-0.290100,0.036926,0.955750,8.650665,6.295471,-3.626251,1,1,1,2,1,100.000000
2021-11-26 22:31:47.195,0.3962670948780333,1.493664642864911,0,0.577061162432322,0.4510618949871251,0.8448065567032975,0,0.720209873869133,1.278008808724357,0.9589205215969479,0,1.295842008820344,0.6961567445382933,0.6122923568994565,0,0.5994981711765665,0.4441464783359641,-0.2410289030667807,0,0.1652324586953456,814.7252747252747,915.8608058608058,395.2747252747253,810.6959706959707,737.3626373626374,-0.283936,0.108459,0.979980,5.839386,-5.824432,-1.517792,1,1,1,2,1,100.000000
2021-11-26 22:31:48.195,0.7559525623932015,1.493664642864911,0,0.9345018326862011,0.5866525534514571,0.8448065567032975,0,0.6348582555787788,1.234642025324411,0.9589205215969479,0,1.241401441338153,0.7435515849201924,0.6122923568994565,0,0.549727228358297,0.4788963322029164,-0.2410289030667807,0,0.1889049045415307,811.0989010989011,728.901098901099,359.4139194139194,795.3846153846154,914.6520146520147,-0.204163,0.114319,0.980042,5.151520,-9.039459,-2.519684,1,1,1,2,1,100.000000
2021-11-26 22:31:48.227,,,,,,,,,,,,,,,,,,,,,,,,,,,,,,,,,,,,,,/muse/elements/jaw_clench
2021-11-26 22:31:48.950,,,,,,,,,,,,,,,,,,,,,,,,,,,,,,,,,,,,,,/muse/elements/jaw_clench
2021-11-26 22:31:49.203,0.4217728212489658,1.493664642864911,0,0.6240156739690457,0.6882089191689579,0.8448065567032975,0,0.4853537544971402,1.020517519827037,0.9589205215969479,0,0.6025806157782742,0.7410381870143403,0.6122923568994565,0,0.5569534179415256,0.4154216008349142,-0.2410289030667807,0,-0.03170019827265984,811.9047619047619,803.040293040293,365.8608058608059,807.8754578754579,749.4505494505495,-0.185974,0.122131,0.990784,5.383301,-6.385193,-1.629944,1,1,1,2,1,100.000000
2021-11-26 22:31:49.433,,,,,,,,,,,,,,,,,,,,,,,,,,,,,,,,,,,,,,/muse/elements/jaw_clench
2021-11-26 22:31:49.564,,,,,,,,,,,,,,,,,,,,,,,,,,,,,,,,,,,,,,/muse/elements/blink
2021-11-26 22:31:50.195,0.126557056170942,1.493664642864911,0,-0.1926815532080824,0.9083416478566808,0.8448065567032975,0,0.7268506389045756,1.027115674999652,0.9589205215969479,0,0.5214145415147899,0.7291095593190069,0.6122923568994565,0,0.4183980047437031,0.4544368152203257,-0.2410289030667807,0,-0.01963027278965216,839.7069597069598,983.5531135531136,536.7032967032967,805.0549450549451,675.7142857142858,-0.271301,0.348328,0.917603,4.112244,-0.022430,1.330872,1,1,4,2,1,100.000000
2021-11-26 22:31:50.285,,,,,,,,,,,,,,,,,,,,,,,,,,,,,,,,,,,,,,/muse/elements/jaw_clench
2021-11-26 22:31:50.987,,,,,,,,,,,,,,,,,,,,,,,,,,,,,,,,,,,,,,/muse/elements/blink
2021-11-26 22:31:51.195,0.6937818156974891,1.493664642864911,0,0.4798508276171663,0.74924884148638,0.8448065567032975,0,0.3285665215332386,1.065708857828795,0.9589205215969479,0,0.4232839591069764,0.8231955528301996,0.6122923568994565,0,0.4229338132704603,0.5953157236965844,-0.2410289030667807,0,0.2514694906960169,829.2307692307693,790.1465201465202,757.1062271062272,819.96336996337,832.0512820512821,-0.306335,0.386169,0.888367,5.637512,-9.660034,2.108459,1,1,4,4,1,100.000000
2021-11-26 22:31:52.195,0.6871603708743824,1.493664642864911,0,0.49982832793964,0.8268965655168968,0.8448065567032975,0,0.4575017318045467,1.112108779807313,0.9589205215969479,0,0.6572310464333909,0.9263909135139254,0.6122923568994565,0,0.6508634474946828,0.589444374237263,-0.2410289030667807,0,0.3245113533984437,805.0549450549451,878.3882783882784,840.9157509157509,807.8754578754579,738.1684981684982,-0.281860,0.376770,0.894775,4.807587,-0.299072,0.800018,1,1,1,4,1,100.000000
2021-11-26 22:31:53.202,0.4876285605140595,1.493664642864911,0,0.2259388250576778,0.7065542551678204,0.8448065567032975,0,0.4984935340563437,0.9780576671740111,0.9589205215969479,0,0.7208191520750434,0.9240331579606074,0.6122923568994565,0,0.5410357643531161,0.6334540235325236,-0.2410289030667807,0,0.2438681600259661,795.3846153846154,992.4175824175825,680.5494505494506,796.996336996337,775.6410256410256,-0.259338,0.379944,0.893921,3.304749,-8.217010,0.097198,1,1,1,2,1,100.000000
2021-11-26 22:31:54.195,0.482649017207238,1.493664642864911,0,0.2804195442278128,0.6440259177611204,0.8448065567032975,0,0.5566183750458148,0.9790194812815253,0.9589205215969479,0,0.7333818622322436,0.8388753030869478,0.6122923568994565,0,0.4969442059316868,0.7061170595059973,-0.2410289030667807,0,0.198415760785868,804.6520146520147,808.6813186813187,631.3919413919414,792.5641025641025,768.7912087912088,-0.224060,0.353638,0.911804,-3.117828,9.944153,2.564545,1,1,1,2,1,100.000000
2021-11-26 22:31:54.529,,,,,,,,,,,,,,,,,,,,,,,,,,,,,,,,,,,,,,/muse/elements/blink
2021-11-26 22:31:55.199,0.3786813205892228,1.493664642864911,0,0.02248625285698279,0.5703725288854948,0.8448065567032975,0,0.445650844692222,0.8202844435663393,0.9589205215969479,0,0.7210374153839474,0.8592064694605752,0.6122923568994565,0,0.5380908978908922,0.7219323263212807,-0.2410289030667807,0,0.2590659374611731,806.6666666666667,766.7765567765568,863.4798534798535,790.952380952381,778.8644688644689,-0.218689,0.028442,0.978882,5.256195,-5.742188,-2.886047,1,1,1,2,1,100.000000
2021-11-26 22:31:56.204,0.5845794620614724,1.493664642864911,0,0.7579132642740598,0.2002648602629798,0.8448065567032975,0,0.2128567038941185,0.6991975301324885,0.9589205215969479,0,0.451910850397339,0.4765861950946298,0.6122923568994565,0,0.6673815880441103,0.2172842607734466,-0.2410289030667807,0,0.2194361645927709,795.7875457875458,552.4175824175825,735.7509157509157,798.2051282051282,742.1978021978023,-0.193237,0.022400,0.977051,6.400146,-5.405731,-2.691650,1,1,4,4,1,100.000000
2021-11-26 22:31:56.565,,,,,,,,,,,,,,,,,,,,,,,,,,,,,,,,,,,,,,/muse/elements/jaw_clench
2021-11-26 22:31:57.194,0.6284764062916806,1.493664642864911,0,0.5470999366057029,0.501092996999688,0.8448065567032975,0,0.2042402170368221,1.207399286253648,0.9589205215969479,0,1.028820836589722,0.5728766552033515,0.6122923568994565,0,0.5993151515720624,0.2500422748109397,-0.2410289030667807,0,0.1994104646399769,800.2197802197802,575.7875457875458,259.4871794871795,815.1282051282052,819.1575091575091,-0.192566,0.053955,1.002930,4.388885,-3.087921,-2.086029,1,1,4,2,1,100.000000
2021-11-26 22:31:58.195,0.6354255766188989,1.493664642864911,0,0.4489303709595284,0.7570483510092395,0.8448065567032975,0,0.444560484001106,1.258599192679464,0.9589205215969479,0,1.138347926655303,0.6944614299984359,0.6122923568994565,0,0.6260148765274394,0.1682678722774683,-0.2410289030667807,0,0.06629805625806874,799.8168498168499,832.8571428571429,582.2344322344322,797.3992673992674,598.3516483516484,-0.208984,0.049316,0.979065,5.233765,-6.250610,-2.280426,1,1,4,2,1,100.000000
2021-11-26 22:31:58.911,,,,,,,,,,,,,,,,,,,,,,,,,,,,,,,,,,,,,,/muse/elements/blink
2021-11-26 22:31:59.194,0.4247253585000964,1.493664642864911,0,0.4922035382308246,0.4176351969725223,0.8448065567032975,0,0.5740858330064535,1.074563214377175,0.9589205215969479,0,1.012022511786253,0.7466997314949289,0.6122923568994565,0,0.6024525918201654,0.3208400813237555,-0.2410289030667807,0,0.2663117070999917,802.2344322344322,826.007326007326,338.8644688644688,780.8791208791209,781.6849816849817,-0.194214,0.056213,0.962769,4.366455,-7.088013,-2.893524,1,1,2,2,1,100.000000
2021-11-26 22:32:00.194,0.4464793589866397,1.493664642864911,0,0.2564272057509922,0.952848928787479,0.8448065567032975,0,1.027133182621567,1.144382219902516,0.9589205215969479,0,1.129292584183147,0.7949388082427353,0.6122923568994565,0,0.8679517049792036,0.4860261655301286,-0.2410289030667807,0,0.221739157944686,815.1282051282052,695.0549450549451,624.9450549450549,801.4285714285714,787.7289377289378,-0.154968,0.066589,0.999878,5.360870,5.286102,-3.334656,1,1,2,2,1,100.000000
2021-11-26 22:32:00.648,,,,,,,,,,,,,,,,,,,,,,,,,,,,,,,,,,,,,,/muse/elements/blink
2021-11-26 22:32:01.195,0.5421554027379006,1.493664642864911,0,0.2761931449570667,0.9370311422509732,0.8448065567032975,0,1.020874100870719,1.18064898440094,0.9589205215969479,0,1.122787081123387,0.7843411435749437,0.6122923568994565,0,0.8744414243335181,0.4494852857653593,-0.2410289030667807,0,0.2836018167191082,913.8461538461539,1392.930402930403,979.5238095238095,857.8388278388279,651.1355311355312,-0.192871,0.302979,0.918579,90.469360,-38.101807,-86.484222,1,1,2,2,1,100.000000
2021-11-26 22:32:01.326,,,,,,,,,,,,,,,,,,,,,,,,,,,,,,,,,,,,,,/muse/elements/blink
2021-11-26 22:32:02.194,0.6218217557367052,1.493664642864911,0,0.3438673549715315,0.8611061980501484,0.8448065567032975,0,0.9776027354658119,1.029362343794281,0.9589205215969479,0,1.011586345434752,0.7396702229634536,0.6122923568994565,0,0.7776891375899118,0.3873862446732558,-0.2410289030667807,0,0.323608866774829,801.8315018315019,834.4688644688645,84.21245421245422,784.1025641025641,907.8021978021978,-0.236023,0.388672,0.920044,8.074951,1.622467,-5.114136,1,1,2,2,1,100.000000
2021-11-26 22:32:03.159,,,,,,,,,,,,,,,,,,,,,,,,,,,,,,,,,,,,,,/muse/elements/blink
2021-11-26 22:32:03.194,0.8914181055433933,1.493664642864911,0,0.6025709149860459,0.5549454173073911,0.8448065567032975,0,0.4240694399612309,1.043338344120289,0.9589205215969479,0,0.8791961166392576,1.167227377726965,0.6122923568994565,0,0.4022343710006905,1.060684494575962,-0.2410289030667807,0,0.1568168810794561,897.7289377289378,1054.065934065934,1623.809523809524,878.7912087912089,833.2600732600733,-0.191956,0.210999,0.928101,-54.917145,17.959290,69.683838,1,1,2,4,1,100.000000
2021-11-26 22:32:04.198,0.8443329467266615,1.493664642864911,0,0.5424952865394591,0.5106165436730249,0.8448065567032975,0,0.4126457102716848,1.00992261987935,0.9589205215969479,0,0.7912492918914932,1.165989856351533,0.6122923568994565,0,0.4269498573831596,1.052558890084797,-0.2410289030667807,0,0.1273319356652949,774.4322344322345,709.1575091575091,720.0366300366301,765.1648351648352,669.6703296703297,-0.239929,0.050964,0.974976,4.314117,-3.820648,-4.097290,1,1,2,4,1,100.000000
2021-11-26 22:32:05.207,0.8452373241624035,1.493664642864911,0,0.9763308350435087,0.9871078781276299,0.8448065567032975,0,0.4558118875799727,1.68024641967979,0.9589205215969479,0,1.649251799984394,0.8403068260540862,0.6122923568994565,0,0.7157781595499074,0.3955973516765065,-0.2410289030667807,0,0.5948880252394489,815.5311355311355,823.1868131868132,630.5860805860806,774.8351648351648,759.5238095238095,-0.244324,0.034424,0.973572,3.394470,-6.205750,5.031891,1,1,2,4,1,100.000000
2021-11-26 22:32:05.502,,,,,,,,,,,,,,,,,,,,,,,,,,,,,,,,,,,,,,/muse/elements/blink
2021-11-26 22:32:06.194,0.9054108746735847,1.493664642864911,0,1.001647424762164,0.9500908298568131,0.8448065567032975,0,0.5453524590103819,1.68024641967979,0.9589205215969479,0,1.640221528578962,0.8761544083274676,0.6122923568994565,0,0.7448915343627998,0.4463025738541713,-0.2410289030667807,0,0.6691409166604387,758.3150183150184,788.9377289377289,1593.992673992674,780.0732600732601,845.7509157509157,-0.203674,0.043274,0.976196,3.753357,-2.265472,-4.201965,1,1,2,2,1,100.000000
2021-11-26 22:32:06.314,,,,,,,,,,,,,,,,,,,,,,,,,,,,,,,,,,,,,,/muse/elements/blink
2021-11-26 22:32:07.195,0.8526222650807317,1.493664642864911,0,1.013001134385873,0.5737037187953098,0.8448065567032975,0,0.6132891209575461,1.153405861410814,0.9589205215969479,0,1.050182273843615,0.8523444685003231,0.6122923568994565,0,0.7648818098784402,0.5812287043264557,-0.2410289030667807,0,0.7855208192210656,833.2600732600733,928.7545787545788,562.4908424908425,805.4578754578755,686.5934065934066,-0.281616,0.088318,0.990356,14.893799,-12.904968,-0.239258,1,1,2,4,1,100.000000
2021-11-26 22:32:07.623,,,,,,,,,,,,,,,,,,,,,,,,,,,,,,,,,,,,,,/muse/elements/blink
2021-11-26 22:32:08.198,0.8526222650807317,1.493664642864911,0,1.013001134385873,0.5737037187953098,0.8448065567032975,0,0.6132891209575461,1.153405861410814,0.9589205215969479,0,1.050182273843615,0.8523444685003231,0.6122923568994565,0,0.7648818098784402,0.5812287043264557,-0.2410289030667807,0,0.7855208192210656,819.1575091575091,908.2051282051282,462.5641025641026,809.4871794871796,744.2124542124542,-0.214966,0.288086,0.942993,11.932983,4.000092,-3.289795,1,2,2,4,2,100.000000
2021-11-26 22:32:09.194,0.605106788863638,1.493664642864911,0,0.6051918500139385,0.2628365556287104,0.8448065567032975,0,0.5569699444889735,0.8324106830742489,0.9589205215969479,0,1.019383098467564,0.6627865103214061,0.6122923568994565,0,0.5093721735680949,0.5795567266725425,-0.2410289030667807,0,0.5029632277553909,799.4139194139194,1074.212454212454,533.0769230769231,800.2197802197802,811.0989010989011,-0.184021,0.410767,0.898193,14.048920,-8.815155,-2.721558,1,1,2,2,1,100.000000
2021-11-26 22:32:10.201,0.7380937603078546,1.493664642864911,0,0.67484563306887,0.4918515650527887,0.8448065567032975,0,0.4693888837802365,0.9138090841274052,0.9589205215969479,0,1.02189811711204,0.8128252869425735,0.6122923568994565,0,0.549161236553158,0.5092395129508652,-0.2410289030667807,0,0.3990541238165101,830.4395604395604,703.1135531135532,236.5201465201465,811.0989010989011,744.6153846153846,-0.047913,0.454895,0.890137,7.469330,-4.299164,0.800018,1,1,2,2,1,100.000000
2021-11-26 22:32:11.194,0.6623984060915036,1.493664642864911,0,0.7572248520452415,0.6705296643859217,0.8448065567032975,0,0.3617447123364002,0.9709745548647132,0.9589205215969479,0,0.832489095968411,1.098914142700381,0.6122923568994565,0,0.6130306079874679,0.6427414845100908,-0.2410289030667807,0,0.2850839063420166,786.9230769230769,766.3736263736264,488.7545787545787,783.6996336996338,760.7326007326008,-0.110168,0.500793,0.887146,4.179535,-0.979462,-0.957031,1,1,2,2,1,100.000000
2021-11-26 22:32:12.194,0.4330235311855128,1.493664642864911,0,0.1796189543578214,0.3978549268631926,0.8448065567032975,0,0.2327935753594638,0.9478079827717599,0.9589205215969479,0,0.9295473001883727,1.217983619279585,0.6122923568994565,0,0.5593855230616495,0.7716620214997142,-0.2410289030667807,0,0.1675574419354346,805.4578754578755,1085.897435897436,657.5824175824176,807.4725274725275,755.4945054945055,-0.177917,0.466064,0.889587,2.280426,-3.469238,-3.327179,1,1,2,2,1,100.000000
2021-11-26 22:32:12.830,,,,,,,,,,,,,,,,,,,,,,,,,,,,,,,,,,,,,,/muse/elements/blink
2021-11-26 22:32:13.201,0.5988210351482849,1.493664642864911,0,0.3590377394435809,0.4940073670932403,0.8448065567032975,0,0.6427439518059854,0.9444155225839864,0.9589205215969479,0,0.9244940726674697,1.228536537145048,0.6122923568994565,0,0.3280539999531812,0.8833772427793983,-0.2410289030667807,0,0.0942987132331751,809.0842490842491,741.7948717948718,282.051282051282,802.6373626373627,837.2893772893773,-0.193481,0.139282,1.006592,1.091614,12.089996,-4.949646,1,1,2,2,1,100.000000
2021-11-26 22:32:14.194,0.5033645051401279,1.493664642864911,0,0.7354096817755168,0.6652980768908022,0.8448065567032975,0,0.9428558066423123,0.8824464209721525,0.9589205215969479,0,1.023868884067219,1.276215609562676,0.6122923568994565,0,0.7406479247228445,0.8771323066702492,-0.2410289030667807,0,0.3802855268751543,790.1465201465202,675.3113553113553,720.0366300366301,795.3846153846154,641.0622710622711,-0.177063,0.102722,0.988220,3.289795,-6.699219,-1.801910,1,1,2,4,1,100.000000
2021-11-26 22:32:14.855,,,,,,,,,,,,,,,,,,,,,,,,,,,,,,,,,,,,,,/muse/elements/jaw_clench
2021-11-26 22:32:15.036,,,,,,,,,,,,,,,,,,,,,,,,,,,,,,,,,,,,,,/muse/elements/jaw_clench
2021-11-26 22:32:15.194,0.722549403206191,1.493664642864911,0,0.6836848448162517,0.7858966622160881,0.8448065567032975,0,0.7759675558239892,1.25573198852877,0.9589205215969479,0,1.035244401780689,0.8463823855697589,0.6122923568994565,0,0.5779750417343439,0.5552671731767838,-0.2410289030667807,0,0.3013727102901856,780.0732600732601,952.5274725274726,809.0842490842491,786.9230769230769,847.7655677655678,-0.167175,0.091736,0.991882,6.445007,-3.775787,-2.714081,1,1,2,2,1,100.000000
2021-11-26 22:32:16.194,0.3620593178646321,1.493664642864911,0,0.5249699920956571,0.5532019719503606,0.8448065567032975,0,0.4526566382342029,0.7679992979911925,0.9589205215969479,0,0.7442128236355425,0.7175516684611174,0.6122923568994565,0,0.5136606280329701,0.2731900891487708,-0.2410289030667807,0,0.08495868117971428,816.7399267399268,722.4542124542124,805.4578754578755,810.2930402930403,835.2747252747253,-0.155151,0.080627,0.981201,3.730927,-4.755249,-2.990723,1,1,2,2,1,100.000000
2021-11-26 22:32:17.200,0.1040130707365018,1.493664642864911,0,0.06195435953988901,0.3021819930599787,0.8448065567032975,0,0.6316753475271386,0.8213931636085918,0.9589205215969479,0,0.835431503978988,0.5633270000105799,0.6122923568994565,0,0.4666178975086488,0.2026608440002474,-0.2410289030667807,0,-0.0285165484364634,799.4139194139194,998.8644688644689,895.7142857142858,795.3846153846154,786.9230769230769,-0.214539,0.079956,0.979675,3.723450,-6.841278,-2.018738,1,1,2,2,1,100.000000
2021-11-26 22:32:17.606,,,,,,,,,,,,,,,,,,,,,,,,,,,,,,,,,,,,,,/muse/elements/jaw_clench
2021-11-26 22:32:18.194,0.5183967059812512,1.493664642864911,0,0.3625964111071479,0.3635732479803649,0.8448065567032975,0,0.4121737024544991,0.9400241440231937,0.9589205215969479,0,0.9521666547834202,0.5658320499717322,0.6122923568994565,0,0.4662242634363172,0.2226165098283525,-0.2410289030667807,0,-0.01541153874617269,808.2783882783883,923.1135531135532,859.8534798534798,811.0989010989011,738.974358974359,-0.080139,0.070862,1.013489,4.456177,-6.317902,-1.099091,1,1,2,2,1,100.000000
2021-11-26 22:32:19.194,0.3942403412739277,1.493664642864911,0,0.5033819994859319,0.5771400685252858,0.8448065567032975,0,0.4796272061316481,0.8860905977326,0.9589205215969479,0,0.9662211380215012,0.6269561966212708,0.6122923568994565,0,0.5477587844865145,0.3065635913419636,-0.2410289030667807,0,0.01611448002196243,810.2930402930403,800.2197802197802,1403.406593406593,793.7728937728938,804.6520146520147,-0.098389,0.061890,1.004883,5.473022,-4.239349,-1.966400,1,1,2,2,1,100.000000
2021-11-26 22:32:19.205,,,,,,,,,,,,,,,,,,,,,,,,,,,,,,,,,,,,,,/muse/elements/jaw_clench
2021-11-26 22:32:20.060,,,,,,,,,,,,,,,,,,,,,,,,,,,,,,,,,,,,,,/muse/elements/blink
2021-11-26 22:32:20.194,0.4675265475236398,1.493664642864911,0,0.7433370803472016,0.4758875346596662,0.8448065567032975,0,0.6170225907545238,0.5284823403869684,0.9589205215969479,0,0.6585735013798578,0.5127365110351727,0.6122923568994565,0,0.4709781191465804,0.2202942330804981,-0.2410289030667807,0,0.01813782037874913,815.1282051282052,1623.809523809524,1623.809523809524,766.7765567765568,579.8168498168499,-0.216675,0.201355,0.962952,5.562744,-12.306824,-0.082245,1,1,2,2,1,100.000000
2021-11-26 22:32:20.853,,,,,,,,,,,,,,,,,,,,,,,,,,,,,,,,,,,,,,/muse/elements/jaw_clench
2021-11-26 22:32:21.194,1.00491681242436,1.493664642864911,0,1.007306985236393,0.6319437837993426,0.8448065567032975,0,0.9056003105667035,0.4597186673087236,0.9589205215969479,0,0.5253867387684528,0.9462456656876991,0.6122923568994565,0,0.5232996385125417,1.138226899161865,-0.2410289030667807,0,-0.03403875808827202,822.3809523809524,660,1637.912087912088,772.8205128205128,743.8095238095239,-0.035156,0.118225,1.104492,2.557068,4.411316,22.490234,1,1,4,2,1,100.000000
2021-11-26 22:32:22.198,1.202910757005582,1.493664642864911,0,1.007306985236393,0.5814447414234958,0.8448065567032975,0,0.9056003105667035,0.3938584996877332,0.9589205215969479,0,0.5253867387684528,1.208854519562543,0.6122923568994565,0,0.5232996385125417,1.435909603398377,-0.2410289030667807,0,-0.03403875808827202,805.4578754578755,902.967032967033,0,798.6080586080586,818.7545787545788,-0.095276,0.109497,0.999451,5.226288,-0.971985,-2.886047,1,1,1,4,1,100.000000
2021-11-26 22:32:23.202,1.264658261677367,1.493664642864911,0,1.007306985236393,0.812118311961799,0.8448065567032975,0,0.9056003105667035,1.428604881995009,0.9589205215969479,0,0.5253867387684528,1.249100063545954,0.6122923568994565,0,0.5232996385125417,1.193467065778543,-0.2410289030667807,0,-0.03403875808827202,778.4615384615385,788.1318681318681,964.2124542124542,781.6849816849817,723.6630036630037,-0.167908,0.070862,0.993591,-5.473022,6.445007,24.351959,1,1,1,4,1,100.000000
2021-11-26 22:32:23.476,,,,,,,,,,,,,,,,,,,,,,,,,,,,,,,,,,,,,,/muse/elements/blink
2021-11-26 22:32:24.194,1.264658261677367,1.493664642864911,0,1.007306985236393,0.812118311961799,0.8448065567032975,0,0.9056003105667035,1.428604881995009,0.9589205215969479,0,0.5253867387684528,1.249100063545954,0.6122923568994565,0,0.5232996385125417,1.193467065778543,-0.2410289030667807,0,-0.03403875808827202,818.3516483516484,890.8791208791209,341.6849816849817,805.4578754578755,734.5421245421246,0.015076,0.163818,0.979004,13.263855,-8.568420,-3.925323,1,1,1,4,1,100.000000
2021-11-26 22:32:25.194,0.4103375133831634,1.493664642864911,0,0.8002639509734395,0.2264664062326511,0.8448065567032975,0,0.5308793100174802,0.837387053059661,0.9589205215969479,0,0.5833292951343734,1.049875381371627,0.6122923568994565,0,0.6718677504265342,0.7708759045538732,-0.2410289030667807,0,0.5584338991872928,816.3369963369963,0,125.7142857142857,778.8644688644689,795.7875457875458,0.048096,0.152954,0.959961,4.157104,-3.237457,-3.087921,1,1,4,4,1,100.000000
2021-11-26 22:32:25.531,,,,,,,,,,,,,,,,,,,,,,,,,,,,,,,,,,,,,,/muse/elements/jaw_clench
2021-11-26 22:32:26.201,1.149145777527809,1.493664642864911,0,1.063214186361372,0.8430010174984252,0.8448065567032975,0,0.669921680392899,1.014082046330094,0.9589205215969479,0,0.8648756550509791,0.8329840071367862,0.6122923568994565,0,0.7180429738969618,0.6575799197485153,-0.2410289030667807,0,0.3575700748327225,797.3992673992674,14.50549450549451,802.2344322344322,794.1758241758242,715.6043956043957,0.111755,0.172791,0.995483,4.201965,-5.016937,-2.272949,1,1,4,2,1,100.000000
2021-11-26 22:32:27.194,1.161995949871499,1.493664642864911,0,0.741706881368412,0.7158069098604783,0.8448065567032975,0,0.5046398884109139,0.9734064058942951,0.9589205215969479,0,0.7992409686431603,0.598390451486067,0.6122923568994565,0,0.5334678271935369,0.4422134163009678,-0.2410289030667807,0,0.08682669304733363,806.2637362637363,987.1794871794872,799.8168498168499,793.3699633699634,815.1282051282052,0.114136,0.170044,0.989380,5.308533,-4.142151,-2.721558,1,1,4,2,1,100.000000
2021-11-26 22:32:28.194,0.9732305804771525,1.493664642864911,0,-0.24745028596895,0.5250060286367655,0.8448065567032975,0,0.3248186750403315,0.7730903804257839,0.9589205215969479,0,0.5600675869451909,0.5759295644713998,0.6122923568994565,0,0.3888618965471954,0.1834867032945195,-0.2410289030667807,0,0.06029268679358549,803.4432234432235,147.4725274725275,678.9377289377289,810.2930402930403,765.5677655677656,0.090210,0.170471,0.971130,6.332855,2.130890,-4.015045,1,1,4,2,1,100.000000
2021-11-26 22:32:28.666,,,,,,,,,,,,,,,,,,,,,,,,,,,,,,,,,,,,,,/muse/elements/blink
2021-11-26 22:32:29.209,-0.2318309263825453,1.493664642864911,0,0.05479043143336553,-0.04016456956735544,0.8448065567032975,0,0.2925981988479417,0.7691378470735019,0.9589205215969479,0,0.6091660453869764,0.7044030457937327,0.6122923568994565,0,0.4387854439849947,0.1220119206921505,-0.2410289030667807,0,0.009094034205420889,812.7106227106227,1341.758241758242,1224.102564102564,798.6080586080586,696.6666666666667,0.070435,0.180176,0.990051,5.316010,-5.966492,-3.327179,1,1,4,2,1,100.000000
2021-11-26 22:32:30.194,0.3246320207764379,1.493664642864911,0,-0.1898398667092893,0.08189025172335621,0.8448065567032975,0,0.08177761253133527,0.2169726843560562,0.9589205215969479,0,0.5451116923583659,0.4920737597252086,0.6122923568994565,0,0.5412125094411437,0.1211234962665096,-0.2410289030667807,0,0.1150989324105322,822.7838827838829,231.2820512820513,926.7399267399268,794.981684981685,743.8095238095239,0.062500,0.174072,0.976929,4.515991,-4.665527,-2.272949,1,1,4,2,1,100.000000
2021-11-26 22:32:30.880,,,,,,,,,,,,,,,,,,,,,,,,,,,,,,,,,,,,,,/muse/elements/jaw_clench
2021-11-26 22:32:31.199,0.2798003652083744,1.493664642864911,0,0.1428107703398259,-0.0281027027921891,0.8448065567032975,0,-0.1929580980631457,0.5532596239051158,0.9589205215969479,0,0.6171297894160834,0.5459421955806697,0.6122923568994565,0,0.5420945065383674,0.1280211431779169,-0.2410289030667807,0,0.05435661166429413,813.1135531135532,786.1172161172161,614.8717948717949,809.4871794871796,918.6813186813187,0.109619,0.185120,0.984863,5.413208,-8.187103,-1.360779,1,1,4,2,1,100.000000
2021-11-26 22:32:32.194,0.2907410317501918,1.493664642864911,0,0.4029326399721588,0.2322025429364564,0.8448065567032975,0,0.3964233973304724,0.7549200324474358,0.9589205215969479,0,0.6957066874236881,0.6322438937366409,0.6122923568994565,0,0.5536455342984983,0.1640325945901092,-0.2410289030667807,0,-0.05122716582999272,829.6336996336996,881.2087912087912,891.6849816849817,811.5018315018315,733.3333333333334,0.102539,0.201050,0.989563,4.545898,-7.828217,-2.370148,1,1,4,2,1,100.000000
2021-11-26 22:32:33.194,0.6989954898202981,1.493664642864911,0,0.6448800711793828,0.8512118799766089,0.8448065567032975,0,0.7866451335114522,1.22275174000288,0.9589205215969479,0,1.025460212238746,0.7463992503079562,0.6122923568994565,0,0.5645401657072684,0.2877383946696588,-0.2410289030667807,0,0.02107509180049704,799.0109890109891,808.6813186813187,1139.084249084249,784.1025641025641,867.5091575091575,0.096680,0.180542,0.989258,4.216919,-5.286102,-2.295380,1,1,4,2,1,100.000000
2021-11-26 22:32:34.194,0.8157310667391166,1.493664642864911,0,0.7625365857921803,0.7416017624537304,0.8448065567032975,0,0.6287037979567598,1.195327229407704,0.9589205215969479,0,0.9636615638361854,0.5186964557850515,0.6122923568994565,0,0.5698303535069684,0.2305394807948758,-0.2410289030667807,0,0.1055168423494373,811.5018315018315,662.014652014652,535.0915750915751,809.8901098901099,807.4725274725275,0.079529,0.181641,1.000488,4.598236,-4.725342,-1.614990,1,1,4,2,1,100.000000
2021-11-26 22:32:35.194,0.6598725315152538,1.493664642864911,0,0.666779924594999,0.5945912100854235,0.8448065567032975,0,0.7074936491165335,1.06464414600635,0.9589205215969479,0,1.026301574823135,0.6538421801405517,0.6122923568994565,0,0.5791172920205034,0.1257535761749223,-0.2410289030667807,0,0.1625500719914173,816.3369963369963,581.4285714285714,931.5750915750916,812.3076923076924,782.893772893773,0.064575,0.179016,0.992981,3.977661,-8.089905,-3.588867,1,1,4,2,1,100.000000
2021-11-26 22:32:36.203,0.7150109696182604,1.493664642864911,0,0.5924141096883652,0.6395796744585653,0.8448065567032975,0,0.7258500745245231,1.045015273394173,0.9589205215969479,0,1.109437448924156,0.8148867326439249,0.6122923568994565,0,0.5531158150592789,0.1193375407807721,-0.2410289030667807,0,0.1775826863961578,807.4725274725275,1376.813186813187,930.3663003663004,814.7252747252747,810.2930402930403,0.036011,0.180603,0.983643,5.794525,5.413208,-1.637421,1,1,4,2,1,100.000000
2021-11-26 22:32:36.690,,,,,,,,,,,,,,,,,,,,,,,,,,,,,,,,,,,,,,/muse/elements/blink
2021-11-26 22:32:37.207,0.3839744061839845,1.493664642864911,0,0.1649598057332752,0.7021210605069067,0.8448065567032975,0,0.4534114233549155,0.9275733243346875,0.9589205215969479,0,1.031235184077229,0.8560804703017203,0.6122923568994565,0,0.551896384064009,0.02164212895089036,-0.2410289030667807,0,0.1651439694845718,828.021978021978,347.7289377289378,965.4212454212454,802.6373626373627,774.8351648351648,-0.150574,0.547485,0.878784,6.751556,3.932800,-4.687958,1,1,2,2,1,100.000000
2021-11-26 22:32:38.194,0.6520099313650443,1.493664642864911,0,0.643240694659602,0.686941634246075,0.8448065567032975,0,0.4574965219789929,0.8823036205559072,0.9589205215969479,0,0.6285090586411817,1.108670828866738,0.6122923568994565,0,0.4716676249041724,0.8506114191108383,-0.2410289030667807,0,-0.05271456617371095,787.7289377289378,1101.208791208791,1246.263736263736,811.0989010989011,855.4212454212454,-0.179626,0.512207,0.831177,5.278625,-10.445099,0.276642,1,1,4,4,1,100.000000
2021-11-26 22:32:39.194,0.8702500178435011,1.493664642864911,0,0.8016375039676442,0.778968667874557,0.8448065567032975,0,0.6601667365027789,1.238189199520568,0.9589205215969479,0,1.045120884739645,1.037117965812515,0.6122923568994565,0,0.6930722540245634,0.8218787705677302,-0.2410289030667807,0,0.09379602890959618,811.0989010989011,781.2820512820513,876.7765567765568,821.5750915750916,675.3113553113553,-0.159912,0.510803,0.870422,3.820648,-1.772003,-1.271057,1,1,4,2,1,100.000000
2021-11-26 22:32:39.555,,,,,,,,,,,,,,,,,,,,,,,,,,,,,,,,,,,,,,/muse/elements/blink
2021-11-26 22:32:40.196,0.8913470504721055,1.493664642864911,0,0.8885784641854222,0.805120433150577,0.8448065567032975,0,1.005770520311697,1.229452451735424,0.9589205215969479,0,1.218961111417205,1.020927597211255,0.6122923568994565,0,0.819724412572806,0.7096367093878123,-0.2410289030667807,0,0.1940887444423582,807.4725274725275,1237.399267399268,503.6630036630037,787.7289377289378,718.4249084249085,-0.033020,0.216858,0.966125,6.878662,-12.030182,-8.374023,1,1,4,4,1,100.000000
2021-11-26 22:32:40.863,,,,,,,,,,,,,,,,,,,,,,,,,,,,,,,,,,,,,,/muse/elements/blink
2021-11-26 22:32:41.201,0.4449555526064876,1.493664642864911,0,0.6715749205195219,0.8076457830150968,0.8448065567032975,0,1.132693101941217,1.126181244075559,0.9589205215969479,0,1.184410668566449,1.069109866574048,0.6122923568994565,0,0.7719303774289186,0.6407711652922575,-0.2410289030667807,0,0.212204306695609,804.2490842490843,634.2124542124542,14.1025641025641,798.2051282051282,730.1098901098901,-0.148987,0.550537,0.820557,7.192688,-12.142334,4.882355,1,1,4,4,1,100.000000
2021-11-26 22:32:41.671,,,,,,,,,,,,,,,,,,,,,,,,,,,,,,,,,,,,,,/muse/elements/blink
2021-11-26 22:32:42.194,0.4449555526064876,1.493664642864911,0,0.6715749205195219,0.8076457830150968,0.8448065567032975,0,1.132693101941217,1.126181244075559,0.9589205215969479,0,1.184410668566449,1.069109866574048,0.6122923568994565,0,0.7719303774289186,0.6407711652922575,-0.2410289030667807,0,0.212204306695609,803.040293040293,691.4285714285714,985.1648351648352,791.7582417582418,844.5421245421246,-0.011230,0.220703,1.036194,6.392670,-0.403748,-4.388885,1,2,4,4,2,100.000000
2021-11-26 22:32:43.207,1.305146487316587,1.493664642864911,0,0.5564080534889377,1.058152917562923,0.8448065567032975,0,0.9656228691207072,0.7309097677050679,0.9589205215969479,0,1.129780990141587,0.8477320257772768,0.6122923568994565,0,0.6814160364240371,0.4753225651552391,-0.2410289030667807,0,0.4222354779608773,807.0695970695971,884.0293040293041,1147.142857142857,805.8608058608058,822.3809523809524,-0.052185,0.228149,0.977661,5.779572,-8.157196,-2.467346,1,1,4,2,1,100.000000
2021-11-26 22:32:44.182,,,,,,,,,,,,,,,,,,,,,,,,,,,,,,,,,,,,,,/muse/elements/jaw_clench
2021-11-26 22:32:44.194,0.8812805432449956,1.493664642864911,0,0.4034548353544064,0.8793801419635192,0.8448065567032975,0,0.8528115727106466,1.35209297780967,0.9589205215969479,0,1.150493221571012,0.8461439891568818,0.6122923568994565,0,0.6441358843769386,0.2747166978382638,-0.2410289030667807,0,0.3316108532529989,815.934065934066,906.996336996337,1629.450549450549,803.040293040293,686.1904761904763,-0.019348,0.227478,0.953003,3.035583,-14.654541,-0.418701,1,1,4,4,1,100.000000
2021-11-26 22:32:45.197,0.3576494630936499,1.493664642864911,0,0.2881409029180784,0.7465134799553994,0.8448065567032975,0,0.7229767579109966,1.543870598438408,0.9589205215969479,0,0.9279450470484359,0.9592033397791374,0.6122923568994565,0,0.5410840351447902,0.3373334467575456,-0.2410289030667807,0,0.2186916826724601,803.8461538461539,749.8534798534798,1232.564102564103,799.8168498168499,938.021978021978,0.009277,0.212097,0.991272,2.235565,-0.000000,-1.749573,1,1,4,2,1,100.000000
2021-11-26 22:32:46.194,0.9279711262775127,1.493664642864911,0,1.311528308064062,0.2383821871117728,0.8448065567032975,0,0.0770766250289824,1.089964842455061,0.9589205215969479,0,0.654159968363321,0.6855262186634006,0.6122923568994565,0,0.4477578269876503,0.5565744245505478,-0.2410289030667807,0,0.1417980223263265,814.7252747252747,143.8461538461538,726.4835164835165,839.7069597069598,841.7216117216118,0.120300,0.233582,0.917053,4.119720,-51.208649,9.136658,1,1,4,2,1,100.000000
2021-11-26 22:32:47.194,1.204629897272383,1.493664642864911,0,1.682979363387039,0.1858094932071712,0.8448065567032975,0,0.02236381316739377,0.6491908863768385,0.9589205215969479,0,0.6151386361364251,0.456519041572747,0.6122923568994565,0,0.5181231577274791,0.7873745987539921,-0.2410289030667807,0,0.3049345480254229,795.3846153846154,494.7985347985348,1211.611721611722,811.0989010989011,692.2344322344322,0.002380,0.169495,0.948181,0.411224,-22.378082,-2.519684,1,1,1,4,1,100.000000
2021-11-26 22:32:48.196,1.204629897272383,1.493664642864911,0,1.055659622113908,0.1858094932071712,0.8448065567032975,0,0.8878834813673796,0.6491908863768385,0.9589205215969479,0,1.138204489014786,0.456519041572747,0.6122923568994565,0,1.297172725539148,0.7873745987539921,-0.2410289030667807,0,1.357077275601182,841.3186813186813,287.2893772893773,1109.267399267399,854.6153846153846,657.5824175824176,-0.014343,0.164307,1.010742,4.815063,-4.979553,-0.127106,1,1,1,4,1,100.000000
2021-11-26 22:32:49.194,1.204629897272383,1.493664642864911,0,0.695040963461273,0.1858094932071712,0.8448065567032975,0,0.8746450926486576,0.6491908863768385,0.9589205215969479,0,1.198177770195417,0.456519041572747,0.6122923568994565,0,1.368869104403373,0.7873745987539921,-0.2410289030667807,0,1.543910766571398,847.7655677655678,828.021978021978,1256.739926739927,901.3553113553114,724.4688644688645,-0.015015,0.157349,0.997742,5.114136,-5.734711,-1.196289,1,1,1,2,1,100.000000
2021-11-26 22:32:49.909,,,,,,,,,,,,,,,,,,,,,,,,,,,,,,,,,,,,,,/muse/elements/blink
2021-11-26 22:32:50.205,1.204629897272383,1.493664642864911,0,0.432107119714994,0.1858094932071712,0.8448065567032975,0,0.4605072738757049,0.6491908863768385,0.9589205215969479,0,1.046728108515439,0.456519041572747,0.6122923568994565,0,1.327577722185779,0.7873745987539921,-0.2410289030667807,0,1.671418589990865,821.1721611721612,777.2527472527473,784.5054945054945,773.6263736263736,737.3626373626374,0.011414,0.130981,1.002869,4.717865,-5.555267,-2.257996,1,1,1,2,1,100.000000
2021-11-26 22:32:51.194,1.204629897272383,1.826267747208144,0,0.7284826008015379,0.1858094932071712,0.9993662053851112,0,0.5907253035154737,0.6491908863768385,0.8310037671215867,0,0.9942489100163596,0.456519041572747,0.2607720923394237,0,1.199520065917551,0.7873745987539921,0.09973823274796782,0,1.405460736629724,823.1868131868132,773.2234432234433,636.2271062271062,801.025641025641,807.0695970695971,0.017639,0.136475,0.995117,4.987030,-5.263672,-1.300964,1,1,1,2,1,100.000000
2021-11-26 22:32:52.194,1.204629897272383,1.452011257396481,0,0.4876427064739799,0.1858094932071712,0.494228199333664,0,0.3795687591032049,0.6491908863768385,0.6552208663425889,0,0.813654693567235,0.456519041572747,0.1730144955145437,0,1.130917299519334,0.7873745987539921,-0.04686947577950264,0,1.215992301847882,809.0842490842491,792.5641025641025,658.3882783882784,827.6190476190476,790.952380952381,0.029602,0.142639,1.002686,4.755249,-11.162872,-4.972076,1,1,1,2,1,100.000000
2021-11-26 22:32:53.194,0.9140730366255807,1.539570517005805,0,0.8162397820279959,0.6534597019978224,1.14691138346544,0,0.6376718835340077,1.066286059626313,0.9703686893538604,0,1.029388295265497,1.449046408244578,0.4208089794668392,0,1.286331657918199,1.603641418473962,-0.04868609470738139,0,1.343625642117354,758.7179487179487,819.5604395604396,1110.07326007326,838.4981684981685,739.7802197802198,-0.074585,0.086487,1.027466,-4.029999,0.157013,-2.474823,1,1,1,4,1,100.000000
2021-11-26 22:32:54.202,1.004463605329238,1.293255277325781,0,0.9902270954465194,0.6972134825272542,0.7020519100473038,0,0.6821887256048694,1.349218683100006,0.8427359611105295,0,1.101323184787132,1.540921409731525,0.380757698376183,0,1.352892779415685,1.521056226178665,-0.04912234447648002,0,1.425730178180229,788.5347985347986,815.5311355311355,954.1391941391942,814.7252747252747,780.0732600732601,-0.217773,-0.173950,0.956970,3.454285,-8.015137,-11.671295,1,1,1,4,1,100.000000
2021-11-26 22:32:54.275,,,,,,,,,,,,,,,,,,,,,,,,,,,,,,,,,,,,,,/muse/elements/blink
2021-11-26 22:32:55.194,1.004463605329238,0.6605509842886848,0,1.110633451939627,0.6972134825272542,0.309035285476803,0,0.7350227190303439,1.349218683100006,0.5756648970834871,0,0.9845141011647573,1.540921409731525,0.4275363471060823,0,1.344707533761532,1.521056226178665,-0.0287035221306285,0,1.36281289391201,794.5787545787546,811.5018315018315,853.8095238095239,810.6959706959707,842.9304029304029,-0.127502,-0.058838,1.000305,5.689850,-4.515991,5.218811,1,1,1,4,1,100.000000
2021-11-26 22:32:55.243,,,,,,,,,,,,,,,,,,,,,,,,,,,,,,,,,,,,,,/muse/elements/jaw_clench
2021-11-26 22:32:55.857,,,,,,,,,,,,,,,,,,,,,,,,,,,,,,,,,,,,,,/muse/elements/blink
2021-11-26 22:32:56.194,1.004463605329238,1.539923320121685,0,1.014113581664383,0.6972134825272542,0.9411876757517313,0,0.9700389547916165,1.349218683100006,0.910734017013677,0,1.006486659204558,1.540921409731525,0.6055387258162229,0,1.32919011980605,1.521056226178665,0.04898636816113266,0,1.46588594895408,734.9450549450549,793.3699633699634,1332.893772893773,851.7948717948718,765.5677655677656,-0.175049,0.236633,0.979370,6.168365,9.211426,-12.261963,1,1,1,4,1,100.000000
2021-11-26 22:32:57.078,,,,,,,,,,,,,,,,,,,,,,,,,,,,,,,,,,,,,,/muse/elements/blink
2021-11-26 22:32:57.194,1.004463605329238,1.370089960801049,0,1.001696565425453,0.6972134825272542,0.5151667551559889,0,0.9343223491129283,1.349218683100006,0.5923194762186618,0,0.9873106873884993,1.540921409731525,0.5517153149336487,0,1.317384885285825,1.521056226178665,0.5757597725566959,0,1.434866554643316,770,820.3663003663004,831.2454212454213,885.2380952380953,770.8058608058608,-0.183716,0.327209,0.989136,3.955231,-2.706604,1.973877,1,1,1,4,1,100.000000
2021-11-26 22:32:58.199,1.004463605329238,0.5572096690040329,0,1.001696565425453,0.6972134825272542,-0.1015052076486061,0,0.9343223491129283,1.349218683100006,0.2974024550331942,0,0.9873106873884993,1.540921409731525,0.4780251838818564,0,1.317384885285825,1.521056226178665,0.6633351627927689,0,1.434866554643316,832.4542124542124,810.2930402930403,840.9157509157509,797.3992673992674,860.2564102564103,-0.097473,0.350403,0.907959,15.476990,-11.850739,-28.755798,1,1,1,2,1,100.000000
2021-11-26 22:32:59.194,1.004463605329238,0.2652443006082621,0,1.001696565425453,0.6972134825272542,0.1636804963094793,0,0.9343223491129283,1.349218683100006,0.3336773757745747,0,0.9873106873884993,1.540921409731525,0.6630555593860323,0,1.317384885285825,1.521056226178665,0.5851267194122347,0,1.434866554643316,865.0915750915751,844.1391941391942,1051.245421245421,842.9304029304029,686.5934065934066,-0.233154,0.461304,0.880188,6.945953,-3.454285,2.407532,1,2,1,4,2,100.000000
2021-11-26 22:33:00.194,1.004463605329238,0.7815226003998552,0,1.493575165946246,0.6972134825272542,0.4551365709730215,0,1.022567317935897,1.349218683100006,0.7189682537122405,0,1.325411817768265,1.540921409731525,0.6950624399420966,0,1.244750438244721,1.521056226178665,0.524041758397777,0,1.250816295404495,813.1135531135532,814.3223443223443,853.4065934065934,797.8021978021978,780.0732600732601,-0.161560,0.509155,0.840942,6.796417,-5.831909,3.648682,1,1,1,2,1,100.000000
