TimeStamp,Delta_TP9,Delta_AF7,Delta_AF8,Delta_TP10,Theta_TP9,Theta_AF7,Theta_AF8,Theta_TP10,Alpha_TP9,Alpha_AF7,Alpha_AF8,Alpha_TP10,Beta_TP9,Beta_AF7,Beta_AF8,Beta_TP10,Gamma_TP9,Gamma_AF7,Gamma_AF8,Gamma_TP10,RAW_TP9,RAW_AF7,RAW_AF8,RAW_TP10,AUX_RIGHT,Accelerometer_X,Accelerometer_Y,Accelerometer_Z,Gyro_X,Gyro_Y,Gyro_Z,HeadBandOn,HSI_TP9,HSI_AF7,HSI_AF8,HSI_TP10,Battery,Elements
2021-11-11 01:27:18.273,,,,,,,,,,,,,,,,,,,,,,,,,,,,,,,,,,,,,,/muse/elements/blink
2021-11-11 01:27:18.991,1.329411222209163,-0.01346380656829822,0,1.314017844723961,0.9005180117863589,-0.663532030985682,0,0.9983128846075324,0.6347612513870572,-0.1597798175395519,0,0.6580653003367656,1.038861676048916,0.4871704296958737,0,1.012879281797866,1.264063266034941,0.3937700233456577,0,0.6370177250695019,355.3846153846154,667.6556776556777,0,774.0293040293041,792.1611721611722,-0.249878,0.147705,0.986572,0.732727,-6.706696,-1.502838,1,2,2,4,2,40.000000
2021-11-11 01:27:19.687,,,,,,,,,,,,,,,,,,,,,,,,,,,,,,,,,,,,,,/muse/elements/jaw_clench
2021-11-11 01:27:19.995,1.329411222209163,-0.01346380656829822,0,1.496238451427927,0.9005180117863589,-0.663532030985682,0,0.5854190887909181,0.6347612513870572,-0.1597798175395519,0,0.7450329120806313,1.038861676048916,0.4871704296958737,0,1.094510192029751,1.264063266034941,0.3937700233456577,0,0.7359859663108027,18.13186813186813,842.5274725274726,0,671.6849816849817,474.2490842490843,-0.541809,0.111023,0.878662,0.770111,-3.349609,3.573914,1,1,2,4,1,40.000000
2021-11-11 01:27:20.196,,,,,,,,,,,,,,,,,,,,,,,,,,,,,,,,,,,,,,/muse/elements/blink
2021-11-11 01:27:20.817,,,,,,,,,,,,,,,,,,,,,,,,,,,,,,,,,,,,,,/muse/elements/blink
2021-11-11 01:27:20.912,,,,,,,,,,,,,,,,,,,,,,,,,,,,,,,,,,,,,,/muse/elements/jaw_clench
2021-11-11 01:27:20.992,1.329411222209163,-0.01346380656829822,0,1.48356926164619,0.9005180117863589,-0.663532030985682,0,0.4477220062220928,0.6347612513870572,-0.1597798175395519,0,0.5604301163831056,1.038861676048916,0.4871704296958737,0,1.078960091238423,1.264063266034941,0.3937700233456577,0,0.7653478245384946,660.4029304029305,723.2600732600732,0,800.6227106227107,652.7472527472528,-0.301880,0.044495,0.966919,3.693542,-6.302948,-18.265839,1,4,1,4,1,40.000000
2021-11-11 01:27:21.440,,,,,,,,,,,,,,,,,,,,,,,,,,,,,,,,,,,,,,/muse/elements/jaw_clench
2021-11-11 01:27:21.943,,,,,,,,,,,,,,,,,,,,,,,,,,,,,,,,,,,,,,/muse/elements/jaw_clench
2021-11-11 01:27:21.999,1.329411222209163,-0.01346380656829822,0,1.464182704494796,0.9005180117863589,-0.663532030985682,0,0.3080397751628687,0.6347612513870572,-0.1597798175395519,0,0.3640955554105563,1.038861676048916,0.4871704296958737,0,1.034020192491863,1.264063266034941,0.3937700233456577,0,0.7957792751410088,288.0952380952381,745.4212454212454,0,801.4285714285714,924.7252747252747,-0.445007,0.096802,0.902710,5.375824,2.654266,0.261688,1,4,1,4,1,40.000000
2021-11-11 01:27:22.130,,,,,,,,,,,,,,,,,,,,,,,,,,,,,,,,,,,,,,/muse/elements/jaw_clench
2021-11-11 01:27:22.362,,,,,,,,,,,,,,,,,,,,,,,,,,,,,,,,,,,,,,/muse/elements/blink
2021-11-11 01:27:22.982,,,,,,,,,,,,,,,,,,,,,,,,,,,,,,,,,,,,,,/muse/elements/jaw_clench
2021-11-11 01:27:22.995,1.329411222209163,1.109434940830732,0,0.9921653910717347,0.9005180117863589,0.733249494764238,0,1.004502373119756,0.6347612513870572,0.6542550909155621,0,1.163083944335147,1.038861676048916,0.2492188504981399,0,1.243584252875781,1.264063266034941,-0.07428638733842137,0,0.8394528964650473,857.4358974358975,743.4065934065934,3.626373626373626,809.8901098901099,574.981684981685,-0.466736,0.069641,0.901001,2.415009,-11.581573,-1.390686,1,4,1,2,1,40.000000
2021-11-11 01:27:23.998,1.329411222209163,0.9753217178104068,0,0.9194100760881607,0.9005180117863589,0.527002056797554,0,1.059181040514305,0.6347612513870572,0.6614398736946311,0,1.156205063451889,1.038861676048916,0.2582143136038559,0,1.257074176712876,1.264063266034941,0.07274904269104153,0,0.8719940233523279,350.5494505494506,758.7179487179487,228.4615384615385,794.981684981685,743.4065934065934,-0.473389,0.083801,0.869812,8.703003,18.206024,1.353302,1,4,1,2,1,40.000000
2021-11-11 01:27:24.997,1.329411222209163,0.7992668207520477,0,1.21747018551118,0.9005180117863589,0.2883816366450269,0,0.5031318095454377,0.6347612513870572,0.11876898593973,0,0.7574119144740638,1.038861676048916,0.1348182023630796,0,1.224031082021437,1.264063266034941,0.07203620525805343,0,1.016986963258465,572.5641025641025,784.5054945054945,0,616.8864468864469,603.992673992674,-0.584717,0.106689,0.857910,5.338440,-7.716064,0.201874,1,2,1,2,1,40.000000
2021-11-11 01:27:25.191,,,,,,,,,,,,,,,,,,,,,,,,,,,,,,,,,,,,,,/muse/elements/blink
2021-11-11 01:27:25.992,1.329411222209163,1.034958056951575,0,1.21747018551118,0.9005180117863589,0.2044605018982678,0,0.5031318095454377,0.6347612513870572,0.3468344635419019,0,0.7574119144740638,1.038861676048916,0.199416714956185,0,1.224031082021437,1.264063266034941,-0.03523025605811927,0,1.016986963258465,467.8021978021978,818.7545787545788,0,783.6996336996338,686.996336996337,-0.215576,0.617065,0.801636,27.365112,-17.106934,8.411407,1,2,1,2,1,40.000000
2021-11-11 01:27:26.545,,,,,,,,,,,,,,,,,,,,,,,,,,,,,,,,,,,,,,/muse/elements/blink
2021-11-11 01:27:26.991,1.329411222209163,1.550535043761776,0,1.221087707328067,0.9005180117863589,0.6437046839111686,0,0.5406017544937224,0.6347612513870572,0.9746580041336789,0,0.6670254642840268,1.038861676048916,0.5449322413693279,0,1.256377748907987,1.264063266034941,0.1519943920374975,0,1.005340839096284,810.2930402930403,973.8827838827839,0,861.4652014652015,667.2527472527473,-0.311340,0.257263,0.890503,-8.284302,-9.674988,-113.273621,1,2,1,2,1,40.000000
2021-11-11 01:27:27.007,,,,,,,,,,,,,,,,,,,,,,,,,,,,,,,,,,,,,,/muse/elements/blink
2021-11-11 01:27:27.992,1.329411222209163,1.721590270500436,0,1.221087707328067,0.9005180117863589,0.7347171772295419,0,0.5406017544937224,0.6347612513870572,0.9706751869668485,0,0.6670254642840268,1.038861676048916,0.7489426763587477,0,1.256377748907987,1.264063266034941,0.3164693891396707,0,1.005340839096284,573.7728937728938,529.047619047619,1134.249084249084,581.4285714285714,650.7326007326008,-0.312256,0.349976,0.851929,6.527252,-24.748230,-86.940308,1,4,4,4,2,40.000000
2021-11-11 01:27:28.998,1.329411222209163,1.721590270500436,0,1.221087707328067,0.9005180117863589,0.7347171772295419,0,0.5406017544937224,0.6347612513870572,0.9706751869668485,0,0.6670254642840268,1.038861676048916,0.7489426763587477,0,1.256377748907987,1.264063266034941,0.3164693891396707,0,1.005340839096284,420.6593406593407,793.3699633699634,0,850.1831501831502,427.1062271062271,-0.411316,-0.066162,0.935669,-32.030640,-18.946228,-11.177826,1,4,2,4,2,40.000000
2021-11-11 01:27:29.167,,,,,,,,,,,,,,,,,,,,,,,,,,,,,,,,,,,,,,/muse/elements/blink
2021-11-11 01:27:29.673,,,,,,,,,,,,,,,,,,,,,,,,,,,,,,,,,,,,,,/muse/elements/blink
2021-11-11 01:27:29.992,1.329411222209163,1.721590270500436,0,1.221087707328067,0.9005180117863589,0.7347171772295419,0,0.5406017544937224,0.6347612513870572,0.9706751869668485,0,0.6670254642840268,1.038861676048916,0.7489426763587477,0,1.256377748907987,1.264063266034941,0.3164693891396707,0,1.005340839096284,892.893772893773,772.8205128205128,25.38461538461539,779.2673992673992,838.4981684981685,-0.291077,0.138550,0.919067,16.643372,-9.727325,4.568329,1,2,1,1,2,40.000000
2021-11-11 01:27:30.065,,,,,,,,,,,,,,,,,,,,,,,,,,,,,,,,,,,,,,/muse/elements/jaw_clench
2021-11-11 01:27:30.797,,,,,,,,,,,,,,,,,,,,,,,,,,,,,,,,,,,,,,/muse/elements/blink
2021-11-11 01:27:30.992,1.329411222209163,1.520221544316247,0,1.221087707328067,0.9005180117863589,0.7168891630251184,0,0.5406017544937224,0.6347612513870572,0.7163386846146238,0,0.6670254642840268,1.038861676048916,0.5255863537646452,0,1.256377748907987,1.264063266034941,0.3158327869991188,0,1.005340839096284,678.5347985347986,785.7142857142858,0,842.9304029304029,805.0549450549451,-0.291260,0.147644,0.941528,2.796326,-2.519684,-0.964508,1,2,1,4,2,40.000000
2021-11-11 01:27:31.991,1.329411222209163,1.439656660652112,0,1.221087707328067,0.9005180117863589,0.9886976820061051,0,0.5406017544937224,0.6347612513870572,1.114357812911096,0,0.6670254642840268,1.038861676048916,0.6038997866613098,0,1.256377748907987,1.264063266034941,0.119233632193546,0,1.005340839096284,878.7912087912089,769.5970695970697,398.0952380952381,769.5970695970697,611.2454212454213,-0.141968,0.296265,0.984863,-9.039459,-37.436371,-1.921539,1,2,1,4,2,30.000000
2021-11-11 01:27:32.904,,,,,,,,,,,,,,,,,,,,,,,,,,,,,,,,,,,,,,/muse/elements/blink
2021-11-11 01:27:32.992,1.329411222209163,1.694572313372601,0,1.149704565568631,0.9005180117863589,1.365470816437546,0,0.7837759580514125,0.6347612513870572,1.12462144169808,0,0.7964642938964436,1.038861676048916,0.7204947732815413,0,0.9696015734050094,1.264063266034941,-0.03977426566285024,0,0.8123384990243451,927.948717948718,722.8571428571429,557.6556776556777,799.4139194139194,843.7362637362637,0.032959,-0.107666,1.041199,7.536621,12.224579,-18.781738,1,2,1,4,1,30.000000
2021-11-11 01:27:33.712,,,,,,,,,,,,,,,,,,,,,,,,,,,,,,,,,,,,,,/muse/elements/blink
2021-11-11 01:27:33.996,1.329411222209163,1.828427789317581,0,1.315288726604033,0.9005180117863589,1.485726858861769,0,0.740255090870425,0.6347612513870572,1.12462144169808,0,1.182933558985338,1.038861676048916,0.8074419284202244,0,1.236585639709633,1.264063266034941,-0.02607761424777715,0,1.152998719561878,622.5274725274726,732.1245421245421,0,767.5824175824176,587.4725274725275,-0.192810,0.159363,0.975098,2.355194,3.611298,-1.757050,1,1,1,4,1,30.000000
2021-11-11 01:27:34.992,1.329411222209163,1.249773521312304,0,0.7115264468940999,0.9005180117863589,0.4582494972261352,0,0.2690328456253782,0.6347612513870572,0.270079067930115,0,1.322943786809836,1.038861676048916,0.447132946630713,0,1.347762095215083,1.264063266034941,0.1400435190009306,0,1.412661471757481,874.3589743589744,808.6813186813187,172.4542124542125,755.4945054945055,701.5018315018315,-0.116333,0.065369,1.011841,-3.394470,10.774078,15.955505,1,1,1,4,1,30.000000
2021-11-11 01:27:35.266,,,,,,,,,,,,,,,,,,,,,,,,,,,,,,,,,,,,,,/muse/elements/blink
2021-11-11 01:27:35.547,,,,,,,,,,,,,,,,,,,,,,,,,,,,,,,,,,,,,,/muse/elements/blink
2021-11-11 01:27:35.779,,,,,,,,,,,,,,,,,,,,,,,,,,,,,,,,,,,,,,/muse/elements/blink
2021-11-11 01:27:35.942,,,,,,,,,,,,,,,,,,,,,,,,,,,,,,,,,,,,,,/muse/elements/blink
2021-11-11 01:27:35.991,1.329411222209163,1.336004137111918,0,0.4301820267751248,0.9005180117863589,0.4054538942968293,0,-0.1436165355227033,0.6347612513870572,0.3576630661929419,0,1.07645334354183,1.038861676048916,0.5153276276261722,0,1.431317028213194,1.264063266034941,0.2709181157707525,0,1.47776627441978,1285.347985347985,747.032967032967,982.7472527472528,782.0879120879121,869.92673992674,-0.496948,0.057739,0.882812,-1.271057,-30.438080,-13.121796,1,1,1,4,1,30.000000
2021-11-11 01:27:36.276,,,,,,,,,,,,,,,,,,,,,,,,,,,,,,,,,,,,,,/muse/elements/blink
2021-11-11 01:27:36.991,1.329411222209163,1.881642863209283,0,0.4301820267751248,0.9005180117863589,0.8941242034823343,0,-0.1436165355227033,0.6347612513870572,0.5746771109049817,0,1.07645334354183,1.038861676048916,0.4248829014138296,0,1.431317028213194,1.264063266034941,0.1165012102974159,0,1.47776627441978,856.2271062271062,734.9450549450549,180.5128205128205,797.8021978021978,757.1062271062272,-0.259705,-0.025940,0.941223,-0.373840,-8.882446,-0.059814,1,1,1,2,1,30.000000
2021-11-11 01:27:37.998,1.329411222209163,1.764616721241191,0,1.203081342900581,0.9005180117863589,0.7214128486266307,0,0.6943269395418561,0.6347612513870572,0.6735464702077726,0,0.6932564051855495,1.038861676048916,0.3348474566437932,0,0.7121067252910716,1.264063266034941,0.07783499469869014,0,0.445758505814887,1104.432234432235,976.7032967032967,2.014652014652015,787.3260073260074,705.5311355311355,0.190063,0.022522,0.985596,15.992889,-7.297363,-46.767426,1,1,1,2,1,30.000000
2021-11-11 01:27:38.999,1.329411222209163,1.865075719461785,0,1.028171156769849,0.9005180117863589,0.6979247007814661,0,0.6561075242122353,0.6347612513870572,0.4209100303416087,0,0.7193879217545512,1.038861676048916,0.3660342236585235,0,0.7112772870153867,1.264063266034941,0.1008978168897744,0,0.3077457542697436,845.3479853479854,792.5641025641025,49.96336996336996,798.2051282051282,728.901098901099,0.067871,0.147217,1.008911,1.981354,-0.000000,8.643188,1,1,1,2,1,30.000000
2021-11-11 01:27:39.992,1.329411222209163,1.432493021275503,0,0.9194760129217825,0.9005180117863589,0.2816848910033607,0,0.7813098436372933,0.6347612513870572,0.3744911255271636,0,0.8658267837711748,1.038861676048916,0.717408460677385,0,0.7524067385257033,1.264063266034941,0.3067866452894357,0,0.1671147955116928,1217.252747252747,793.7728937728938,1106.849816849817,807.8754578754579,774.4322344322345,0.054871,-0.013245,1.027283,-11.245117,-11.237640,3.947754,1,1,1,2,1,30.000000
2021-11-11 01:27:40.991,1.329411222209163,0.9043758419828691,0,0.8120617806596785,0.9005180117863589,0.1816474413654627,0,0.6708454327286794,0.6347612513870572,0.5054968733695122,0,1.015501949283635,1.038861676048916,0.6485154776695888,0,0.8690961002226489,1.264063266034941,0.2655298537521644,0,0.6475539540382702,1160.03663003663,834.0659340659341,102.3443223443224,651.1355311355312,641.8681318681319,-0.203003,0.035706,0.943115,9.592743,-35.798950,-200.453186,1,1,1,2,1,30.000000
2021-11-11 01:27:41.237,,,,,,,,,,,,,,,,,,,,,,,,,,,,,,,,,,,,,,/muse/elements/blink
2021-11-11 01:27:41.992,1.329411222209163,1.324773149647698,0,0.6708314484321252,0.9005180117863589,0.8650126103548316,0,0.2514440909033679,0.6347612513870572,1.041524072834044,0,0.874148083683833,1.038861676048916,0.7103350660984276,0,0.9838838175257517,1.264063266034941,0.3409521590875176,0,0.9218146196635068,1246.263736263736,796.1904761904763,0,843.7362637362637,855.0183150183151,0.257874,0.259277,0.968140,6.116028,-17.338715,10.146027,1,1,1,2,1,30.000000
2021-11-11 01:27:42.998,1.329411222209163,1.681112787093583,0,0.6708314484321252,0.9005180117863589,0.9180920581835921,0,0.2514440909033679,0.6347612513870572,1.038606310320645,0,0.874148083683833,1.038861676048916,0.7913619871093025,0,0.9838838175257517,1.264063266034941,0.406427127460637,0,0.9218146196635068,1081.868131868132,809.0842490842491,1068.974358974359,792.5641025641025,692.6373626373627,0.023254,0.007629,1.048828,4.673004,3.461761,23.036041,1,1,1,4,1,40.000000
2021-11-11 01:27:43.687,,,,,,,,,,,,,,,,,,,,,,,,,,,,,,,,,,,,,,/muse/elements/blink
2021-11-11 01:27:43.998,1.329411222209163,2.030229916698075,0,1.099301774375461,0.9005180117863589,0.9103428691899423,0,0.8434200870657614,0.6347612513870572,0.583196197780706,0,0.7961833167708143,1.038861676048916,0.7888446910567436,0,1.084744838299421,1.264063266034941,0.3109627574833683,0,0.9282139307787035,1108.058608058608,854.2124542124542,721.2454212454213,810.6959706959707,713.992673992674,-0.025452,-0.009216,0.985962,-7.895508,-7.917938,-7.005768,1,1,1,2,1,40.000000
2021-11-11 01:27:44.999,1.329411222209163,1.983263495222659,0,0.4422366682943412,0.9005180117863589,0.5833924927305439,0,0.08353229642837449,0.6347612513870572,0.4455461360657926,0,0.2630410100301125,1.038861676048916,0.7612040219963367,0,0.8581864787788859,1.264063266034941,0.4253494739636564,0,0.4605834097827586,939.2307692307693,784.5054945054945,222.4175824175824,774.0293040293041,804.6520146520147,-0.003418,0.008667,1.010071,16.934967,4.523468,17.480774,1,1,1,2,1,40.000000
2021-11-11 01:27:45.099,,,,,,,,,,,,,,,,,,,,,,,,,,,,,,,,,,,,,,/muse/elements/blink
2021-11-11 01:27:45.995,1.329411222209163,1.340564391037128,0,0.4422366682943412,0.9005180117863589,0.20514633658434,0,0.08353229642837449,0.6347612513870572,0.490965853607458,0,0.2630410100301125,1.038861676048916,0.7378632849759471,0,0.8581864787788859,1.264063266034941,0.2480380794916281,0,0.4605834097827586,1171.318681318681,788.9377289377289,1124.981684981685,797.8021978021978,776.8498168498169,-0.103760,0.015381,1.009460,-2.003784,1.353302,-17.914429,1,1,1,2,1,40.000000
2021-11-11 01:27:46.991,0.9928352545715787,0.6833108499649195,0,0.650989529918129,0.8220174088944598,0.2088732517344509,0,0.7477660673682948,0.8053922721083597,0.367442650875357,0,0.6606673575809929,0.9202777881224722,0.7906817047592439,0,1.120382960981378,1.201880907816391,0.2288179018691744,0,0.9270879285098661,1296.630036630037,827.2161172161173,785.3113553113553,786.1172161172161,782.893772893773,-0.031921,0.225403,1.001404,2.729034,-9.465637,-6.243134,1,1,1,2,1,40.000000
2021-11-11 01:27:47.993,1.033015927659591,0.2272753885862258,0,0.5340575522688283,0.7212397355064237,-0.06246135756754632,0,0.6359078725999618,0.8835324972532332,0.1222208031308799,0,0.7342067141119137,0.9015380197199523,0.7404017961879351,0,1.011394523176226,1.268770440814821,0.2027741166984388,0,0.8261584857868377,1096.373626373626,834.4688644688645,964.2124542124542,799.8168498168499,821.1721611721612,-0.106384,0.055969,0.995117,-8.134766,13.218994,32.322235,1,1,1,2,1,40.000000
2021-11-11 01:27:48.991,1.715503686263425,0.3103419298796594,0,1.438352493296765,0.8931322481603708,-0.2568360439435321,0,0.7386849447007799,0.9844206930071949,0.08015967336721608,0,1.01837365734729,1.018898856713562,0.6227010503681916,0,1.110204565310337,1.185875682414587,0.271068501374799,0,0.9599219706634113,1104.432234432235,797.3992673992674,398.4981684981685,810.2930402930403,630.5860805860806,-0.100159,0.129272,1.006531,10.033875,-4.762726,-3.252411,1,1,1,2,1,40.000000
2021-11-11 01:27:49.993,1.757849984253018,0.4151164468309478,0,1.523307663407392,0.7724152068819162,0.05551056846705928,0,0.7549851480753024,0.9290427019420439,0.4578763330802775,0,1.006103485559159,0.5948244988485133,0.7179734408732721,0,0.96027955045932,0.9666962086412446,0.07923847787922295,0,0.7908482114860865,1193.076923076923,821.1721611721612,634.6153846153846,815.1282051282052,877.5824175824176,0.070496,0.225464,0.968445,-2.646790,-11.185303,-20.606079,1,1,1,2,1,40.000000
2021-11-11 01:27:50.775,,,,,,,,,,,,,,,,,,,,,,,,,,,,,,,,,,,,,,/muse/elements/blink
2021-11-11 01:27:50.991,1.060838803649939,0.6179669343696087,0,0.7827120589723979,0.7614451624019374,0.6043110450563481,0,0.5452248114008821,1.051065251007935,0.4055442246600799,0,0.7705620527801312,0.6971366328902515,0.7214121824043289,0,0.9309586607227266,1.000092536795983,0.3385066042389216,0,0.6537422367881526,1180.989010989011,802.2344322344322,560.4761904761905,826.8131868131868,771.6117216117216,-0.142578,0.312439,0.964905,7.544098,-10.744171,-10.220795,1,1,1,2,1,40.000000
2021-11-11 01:27:51.992,,,,,,,,,,,,,,,,,,,,,,,,,,,,,,,,,,,,,,/muse/elements/blink
2021-11-11 01:27:52.005,1.114236362365705,0.6196103960050705,0,1.200475294224017,0.9005564767455118,0.4930976753106646,0,0.2766726508906835,1.020678628572712,0.2219843852242021,0,0.8150802420156791,0.744104393841724,0.6351488077401682,0,0.932378062569583,1.076255513795245,0.3272086106724314,0,0.736046196957952,1203.553113553114,783.6996336996338,267.948717948718,811.5018315018315,669.6703296703297,0.005676,0.304321,0.976929,4.927216,-5.555267,-4.306641,1,1,1,2,1,40.000000
2021-11-11 01:27:52.831,,,,,,,,,,,,,,,,,,,,,,,,,,,,,,,,,,,,,,/muse/elements/blink
2021-11-11 01:27:52.991,1.114236362365705,1.028045049275853,0,1.200475294224017,0.9005564767455118,0.7804041551692822,0,0.2766726508906835,1.020678628572712,0.7600612225405615,0,0.8150802420156791,0.744104393841724,0.7586239021673391,0,0.932378062569583,1.076255513795245,0.2743922971309078,0,0.736046196957952,1266.007326007326,830.8424908424909,1193.479853479854,803.8461538461539,809.8901098901099,-0.070618,0.202515,0.976440,-4.157104,4.590759,14.609680,1,1,1,2,1,40.000000
2021-11-11 01:27:53.991,1.114236362365705,0.9309033459180218,0,1.200475294224017,0.9005564767455118,0.7083820337599739,0,0.2766726508906835,1.020678628572712,0.7147733239490925,0,0.8150802420156791,0.744104393841724,0.8229400112513267,0,0.932378062569583,1.076255513795245,0.3031538238881389,0,0.736046196957952,1287.362637362637,821.978021978022,824.3956043956044,805.0549450549451,805.4578754578755,-0.114319,0.202087,1.013062,8.411407,-8.104858,-0.672913,1,2,1,4,2,40.000000
2021-11-11 01:27:54.427,,,,,,,,,,,,,,,,,,,,,,,,,,,,,,,,,,,,,,/muse/elements/blink
2021-11-11 01:27:54.945,,,,,,,,,,,,,,,,,,,,,,,,,,,,,,,,,,,,,,/muse/elements/blink
2021-11-11 01:27:55.003,0.3254641252626804,0.6386175099673145,0,0.7435532811448609,0.325752292881886,0.3645538863653366,0,0.7797813490979227,0.9126760911810753,0.4411540290919373,0,0.7068967142917428,0.9024024134509487,0.8078153835434887,0,1.038471575788988,1.15449912322367,0.2851590523572368,0,0.8365528830628843,1162.857142857143,829.2307692307693,671.2820512820513,801.025641025641,784.1025641025641,0.014160,0.068909,0.996399,-5.188904,-1.278534,-13.600311,1,1,1,4,1,40.000000
2021-11-11 01:27:55.173,,,,,,,,,,,,,,,,,,,,,,,,,,,,,,,,,,,,,,/muse/elements/blink
2021-11-11 01:27:55.991,0.3254641252626804,0.5921260778674099,0,0.7866867092050228,0.325752292881886,0.2224015068854909,0,0.8637995143855079,0.9126760911810753,0.129912592308691,0,0.6369206452791984,0.9024024134509487,0.7443892616391333,0,0.993367790742357,1.15449912322367,0.2637311506965919,0,0.813431903472189,1085.091575091575,805.4578754578755,837.2893772893773,808.2783882783883,831.6483516483516,-0.029785,-0.049805,0.989258,4.927216,6.646881,-2.400055,1,1,1,2,1,40.000000
2021-11-11 01:27:56.492,,,,,,,,,,,,,,,,,,,,,,,,,,,,,,,,,,,,,,/muse/elements/blink
2021-11-11 01:27:56.991,0.3254641252626804,0.4445042541330447,0,0.7866867092050228,0.325752292881886,0.159060666436483,0,0.8637995143855079,0.9126760911810753,0.1879231710944087,0,0.6369206452791984,0.9024024134509487,0.7095796679340014,0,0.993367790742357,1.15449912322367,0.3899491596634349,0,0.813431903472189,1151.575091575092,902.1611721611722,1132.637362637363,842.1245421245421,790.952380952381,-0.152466,0.274109,0.987122,12.164764,-6.205750,-12.942352,1,1,1,4,1,40.000000
2021-11-11 01:27:57.096,,,,,,,,,,,,,,,,,,,,,,,,,,,,,,,,,,,,,,/muse/elements/blink
2021-11-11 01:27:57.992,0.3254641252626804,0.5093434535577913,0,0.7866867092050228,0.325752292881886,0.07912918800608612,0,0.8637995143855079,0.9126760911810753,0.1456889675974272,0,0.6369206452791984,0.9024024134509487,0.7594454657035034,0,0.993367790742357,1.15449912322367,0.4417651380055058,0,0.813431903472189,1150.769230769231,817.948717948718,0,805.4578754578755,616.4835164835165,0.085999,0.301392,0.904663,-12.000275,-5.241241,5.046844,1,2,1,2,2,40.000000
2021-11-11 01:27:58.991,1.081840568385476,1.63741799123444,0,1.702675530412367,0.598675468267636,0.7950780070499059,0,0.6832908567549213,0.7561356890783946,0.4644105853780774,0,1.211773479414674,0.7795336378242383,0.4307306636402347,0,1.108258927496796,1.048883830703417,0.2367294756325968,0,0.9056097655508434,1353.040293040293,815.5311355311355,426.3003663003663,847.7655677655678,925.1282051282052,0.209229,0.220947,0.979858,4.919739,-26.834259,4.261780,1,1,1,4,1,40.000000
2021-11-11 01:27:59.450,,,,,,,,,,,,,,,,,,,,,,,,,,,,,,,,,,,,,,/muse/elements/blink
2021-11-11 01:27:59.994,1.081840568385476,1.785282953324887,0,1.745718906911434,0.598675468267636,0.8757055830178091,0,0.631257634787413,0.7561356890783946,0.3870395457822425,0,1.206433659822303,0.7795336378242383,0.4834839403520779,0,1.238100609472083,1.048883830703417,0.2325613817579185,0,0.9896487405609165,1311.538461538462,796.996336996337,23.36996336996337,838.0952380952381,761.1355311355312,-0.306213,-0.076782,0.996521,-36.703644,48.718872,45.645905,1,1,1,4,1,40.000000
2021-11-11 01:28:00.526,,,,,,,,,,,,,,,,,,,,,,,,,,,,,,,,,,,,,,/muse/elements/blink
2021-11-11 01:28:00.993,1.081840568385476,1.407163597755701,0,1.619692316986965,0.598675468267636,0.5956013196381649,0,0.5334215277577838,0.7561356890783946,0.1922733739439067,0,1.197624851402956,0.7795336378242383,0.6920335833717841,0,1.248203116915399,1.048883830703417,0.2745939449655918,0,0.9998231661613242,1119.340659340659,820.3663003663004,419.8534798534799,784.5054945054945,690.6227106227107,-0.072754,0.099854,1.004578,6.497345,-3.200073,-3.962708,1,1,1,4,1,40.000000
2021-11-11 01:28:01.640,,,,,,,,,,,,,,,,,,,,,,,,,,,,,,,,,,,,,,/muse/elements/blink
2021-11-11 01:28:01.991,1.081840568385476,1.267415562343425,0,1.619692316986965,0.598675468267636,0.5238117014862461,0,0.5334215277577838,0.7561356890783946,0.2760476339137035,0,1.197624851402956,0.7795336378242383,0.6896598225835792,0,1.248203116915399,1.048883830703417,0.2341438454630825,0,0.9998231661613242,1552.490842490843,1619.377289377289,1047.216117216117,1052.454212454212,689.8168498168499,-0.448486,0.108276,0.892456,-10.774078,-4.710388,10.676880,1,2,1,4,2,40.000000
2021-11-11 01:28:02.999,1.081840568385476,1.074109978893145,0,1.619692316986965,0.598675468267636,0.4311793417814996,0,0.5334215277577838,0.7561356890783946,0.2191967313536276,0,1.197624851402956,0.7795336378242383,0.6870448180208473,0,1.248203116915399,1.048883830703417,0.1715036414741933,0,0.9998231661613242,1459.010989010989,1224.102564102564,351.7582417582418,853.4065934065934,806.2637362637363,-0.483276,0.033081,0.830261,10.908661,-1.786957,-3.072968,1,2,4,4,2,40.000000
2021-11-11 01:28:03.287,,,,,,,,,,,,,,,,,,,,,,,,,,,,,,,,,,,,,,/muse/elements/blink
2021-11-11 01:28:04.007,1.081840568385476,1.074109978893145,0,1.619692316986965,0.598675468267636,0.4311793417814996,0,0.5334215277577838,0.7561356890783946,0.2191967313536276,0,1.197624851402956,0.7795336378242383,0.6870448180208473,0,1.248203116915399,1.048883830703417,0.1715036414741933,0,0.9998231661613242,1166.886446886447,0,1016.996336996337,710.7692307692308,639.8534798534798,-0.480408,0.191040,0.845093,73.631592,-32.217560,-155.435333,1,2,4,4,2,40.000000
2021-11-11 01:28:04.176,,,,,,,,,,,,,,,,,,,,,,,,,,,,,,,,,,,,,,/muse/elements/blink
2021-11-11 01:28:04.990,1.081840568385476,1.074109978893145,0,1.619692316986965,0.598675468267636,0.4311793417814996,0,0.5334215277577838,0.7561356890783946,0.2191967313536276,0,1.197624851402956,0.7795336378242383,0.6870448180208473,0,1.248203116915399,1.048883830703417,0.1715036414741933,0,0.9998231661613242,1010.14652014652,663.6263736263736,650.3296703296703,761.941391941392,840.5128205128206,-0.367981,0.408813,0.905579,10.071259,-4.620667,11.177826,1,2,4,4,2,40.000000
2021-11-11 01:28:05.996,1.081840568385476,1.074109978893145,0,1.619692316986965,0.598675468267636,0.4311793417814996,0,0.5334215277577838,0.7561356890783946,0.2191967313536276,0,1.197624851402956,0.7795336378242383,0.6870448180208473,0,1.248203116915399,1.048883830703417,0.1715036414741933,0,0.9998231661613242,1139.084249084249,738.974358974359,261.0989010989011,826.007326007326,750.2564102564103,0.060669,0.507690,0.852356,-24.561310,11.118011,-10.108643,1,2,4,4,2,40.000000
2021-11-11 01:28:06.929,,,,,,,,,,,,,,,,,,,,,,,,,,,,,,,,,,,,,,/muse/elements/blink
2021-11-11 01:28:06.991,1.081840568385476,1.074109978893145,0,1.619692316986965,0.598675468267636,0.4311793417814996,0,0.5334215277577838,0.7561356890783946,0.2191967313536276,0,1.197624851402956,0.7795336378242383,0.6870448180208473,0,1.248203116915399,1.048883830703417,0.1715036414741933,0,0.9998231661613242,620.9157509157509,743.4065934065934,824.7985347985348,747.4358974358975,614.4688644688645,-0.557739,0.002747,0.866760,-6.931000,-22.946320,-12.089996,1,2,1,2,2,40.000000
2021-11-11 01:28:07.996,1.081840568385476,1.074109978893145,0,1.619692316986965,0.598675468267636,0.4311793417814996,0,0.5334215277577838,0.7561356890783946,0.2191967313536276,0,1.197624851402956,0.7795336378242383,0.6870448180208473,0,1.248203116915399,1.048883830703417,0.1715036414741933,0,0.9998231661613242,713.5897435897436,705.5311355311355,31.02564102564103,848.5714285714286,820.7692307692308,-0.298401,0.115173,1.010742,16.979828,-4.994507,-3.080444,1,2,1,4,2,40.000000
2021-11-11 01:28:08.658,,,,,,,,,,,,,,,,,,,,,,,,,,,,,,,,,,,,,,/muse/elements/blink
2021-11-11 01:28:08.991,1.081840568385476,1.074109978893145,0,1.619692316986965,0.598675468267636,0.4311793417814996,0,0.5334215277577838,0.7561356890783946,0.2191967313536276,0,1.197624851402956,0.7795336378242383,0.6870448180208473,0,1.248203116915399,1.048883830703417,0.1715036414741933,0,0.9998231661613242,595.5311355311355,755.0915750915751,17.72893772893773,841.7216117216118,753.0769230769231,-0.396057,0.268250,0.972107,-8.792725,-25.675354,-14.572296,1,2,1,2,2,40.000000
2021-11-11 01:28:09.371,,,,,,,,,,,,,,,,,,,,,,,,,,,,,,,,,,,,,,/muse/elements/blink
2021-11-11 01:28:09.993,,,,,,,,,,,,,,,,,,,,,,,,,,,,,,,,,,,,,,/muse/elements/blink
2021-11-11 01:28:09.998,1.081840568385476,1.074109978893145,0,1.619692316986965,0.598675468267636,0.4311793417814996,0,0.5334215277577838,0.7561356890783946,0.2191967313536276,0,1.197624851402956,0.7795336378242383,0.6870448180208473,0,1.248203116915399,1.048883830703417,0.1715036414741933,0,0.9998231661613242,696.2637362637363,855.0183150183151,260.6959706959707,795.3846153846154,603.5897435897436,-0.292358,0.101501,0.953979,12.396545,4.987030,-7.514191,1,2,1,2,2,40.000000
2021-11-11 01:28:10.990,1.081840568385476,1.074109978893145,0,1.619692316986965,0.598675468267636,0.4311793417814996,0,0.5334215277577838,0.7561356890783946,0.2191967313536276,0,1.197624851402956,0.7795336378242383,0.6870448180208473,0,1.248203116915399,1.048883830703417,0.1715036414741933,0,0.9998231661613242,505.2747252747253,659.5970695970697,1623.809523809524,676.9230769230769,724.8717948717949,-0.429199,0.229126,0.869690,10.138550,9.674988,-11.768494,1,2,4,2,2,40.000000
2021-11-11 01:28:11.293,,,,,,,,,,,,,,,,,,,,,,,,,,,,,,,,,,,,,,/muse/elements/blink
2021-11-11 01:28:12.001,1.081840568385476,1.074109978893145,0,1.619692316986965,0.598675468267636,0.4311793417814996,0,0.5334215277577838,0.7561356890783946,0.2191967313536276,0,1.197624851402956,0.7795336378242383,0.6870448180208473,0,1.248203116915399,1.048883830703417,0.1715036414741933,0,0.9998231661613242,459.7435897435898,1432.014652014652,1627.838827838828,769.1941391941392,757.9120879120879,-0.555847,0.255615,0.786682,-5.241241,-2.071075,-1.203766,1,2,4,2,2,40.000000
2021-11-11 01:28:12.317,,,,,,,,,,,,,,,,,,,,,,,,,,,,,,,,,,,,,,/muse/elements/blink
2021-11-11 01:28:12.995,1.081840568385476,1.074109978893145,0,1.619692316986965,0.598675468267636,0.4311793417814996,0,0.5334215277577838,0.7561356890783946,0.2191967313536276,0,1.197624851402956,0.7795336378242383,0.6870448180208473,0,1.248203116915399,1.048883830703417,0.1715036414741933,0,0.9998231661613242,511.7216117216117,649.1208791208792,0,745.4212454212454,631.7948717948718,-0.419067,0.232117,0.876160,-0.134583,-4.478607,4.246826,1,2,2,4,2,40.000000
2021-11-11 01:28:13.315,,,,,,,,,,,,,,,,,,,,,,,,,,,,,,,,,,,,,,/muse/elements/blink
2021-11-11 01:28:13.638,,,,,,,,,,,,,,,,,,,,,,,,,,,,,,,,,,,,,,/muse/elements/jaw_clench
2021-11-11 01:28:13.733,,,,,,,,,,,,,,,,,,,,,,,,,,,,,,,,,,,,,,/muse/elements/blink
2021-11-11 01:28:13.990,1.081840568385476,1.074109978893145,0,1.619692316986965,0.598675468267636,0.4311793417814996,0,0.5334215277577838,0.7561356890783946,0.2191967313536276,0,1.197624851402956,0.7795336378242383,0.6870448180208473,0,1.248203116915399,1.048883830703417,0.1715036414741933,0,0.9998231661613242,814.3223443223443,701.9047619047619,50.36630036630036,699.0842490842491,809.4871794871796,-0.354248,0.086365,0.899292,24.464111,-18.430328,21.578064,1,2,1,4,2,40.000000
2021-11-11 01:28:14.242,,,,,,,,,,,,,,,,,,,,,,,,,,,,,,,,,,,,,,/muse/elements/blink
2021-11-11 01:28:15.000,1.081840568385476,1.117907591425277,0,1.619692316986965,0.598675468267636,0.5243595963327385,0,0.5334215277577838,0.7561356890783946,0.314112431114879,0,1.197624851402956,0.7795336378242383,0.460518594104396,0,1.248203116915399,1.048883830703417,0.1954001088328311,0,0.9998231661613242,625.3479853479854,731.7216117216118,0,792.1611721611722,687.8021978021978,-0.361816,0.352295,0.863464,6.706696,-15.409698,8.493652,1,2,1,2,2,40.000000
2021-11-11 01:28:15.290,,,,,,,,,,,,,,,,,,,,,,,,,,,,,,,,,,,,,,/muse/elements/jaw_clench
2021-11-11 01:28:16.001,1.081840568385476,1.014796443462818,0,1.619692316986965,0.598675468267636,0.5324766707356514,0,0.5334215277577838,0.7561356890783946,0.2709721158002604,0,1.197624851402956,0.7795336378242383,0.4806946993707212,0,1.248203116915399,1.048883830703417,0.1621630746872112,0,0.9998231661613242,844.9450549450549,696.6666666666667,241.7582417582418,803.040293040293,721.2454212454213,-0.345886,-0.112915,0.888428,-15.611572,-20.351868,-10.766602,1,2,1,4,2,40.000000
2021-11-11 01:28:16.087,,,,,,,,,,,,,,,,,,,,,,,,,,,,,,,,,,,,,,/muse/elements/blink
2021-11-11 01:28:16.696,,,,,,,,,,,,,,,,,,,,,,,,,,,,,,,,,,,,,,/muse/elements/blink
2021-11-11 01:28:16.990,1.081840568385476,1.485384719257651,0,1.619692316986965,0.598675468267636,0.835183093766414,0,0.5334215277577838,0.7561356890783946,0.8049696478651645,0,1.197624851402956,0.7795336378242383,0.4836930816570671,0,1.248203116915399,1.048883830703417,0.0005475450726279749,0,0.9998231661613242,942.0512820512821,750.2564102564103,280.8424908424909,822.3809523809524,865.8974358974359,-0.436157,-0.093079,0.911499,2.743988,-6.093597,-3.259888,1,2,1,1,2,40.000000
2021-11-11 01:28:17.113,,,,,,,,,,,,,,,,,,,,,,,,,,,,,,,,,,,,,,/muse/elements/jaw_clench
2021-11-11 01:28:17.723,,,,,,,,,,,,,,,,,,,,,,,,,,,,,,,,,,,,,,/muse/elements/jaw_clench
2021-11-11 01:28:17.912,,,,,,,,,,,,,,,,,,,,,,,,,,,,,,,,,,,,,,/muse/elements/jaw_clench
2021-11-11 01:28:17.990,1.222087135526247,1.052246058356692,0,1.356419096905184,0.9995066378992131,0.4891148897868986,0,0.6389075432769837,0.7101338074665213,0.88739723854598,0,0.5382253312381886,0.85277798112815,0.300816747083012,0,0.7780513745998036,0.9745206978408436,0.03811040015460828,0,0.6345256080371093,868.7179487179487,751.0622710622711,317.9120879120879,734.5421245421246,743.8095238095239,-0.424194,-0.148438,0.886841,4.904785,-3.544006,-1.024323,1,2,1,2,2,40.000000
2021-11-11 01:28:18.191,,,,,,,,,,,,,,,,,,,,,,,,,,,,,,,,,,,,,,/muse/elements/blink
2021-11-11 01:28:18.990,1.300854392291846,0.7587992999620008,0,1.360866063715358,1.018854424296122,0.2317411759705864,0,0.7885369058802741,0.8302555909205649,0.3320269984824272,0,1.096887140904501,0.8496465937451773,0.3255852080203946,0,0.775289607708493,0.9744632843326183,0.07511619653053996,0,0.5862762362145868,894.908424908425,809.0842490842491,0,712.7838827838829,743.4065934065934,-0.283447,0.004456,0.950928,16.179810,6.886139,2.295380,1,1,1,2,1,40.000000
2021-11-11 01:28:19.746,,,,,,,,,,,,,,,,,,,,,,,,,,,,,,,,,,,,,,/muse/elements/blink
2021-11-11 01:28:19.991,1.337569612760943,1.020041246683627,0,1.365267956865021,1.056911237528689,0.3931206130580613,0,0.899614428414242,0.8302555909205649,0.3676494677995009,0,1.07071740024009,0.8577548746544533,0.4323219158641958,0,0.7725101657206472,0.9571668863876895,0.02153110619762876,0,0.5319886202681016,692.2344322344322,707.948717948718,1623.809523809524,732.9304029304029,829.6336996336996,-0.674194,0.198730,0.646362,-1.203766,-15.985413,16.359253,1,1,1,1,1,40.000000
2021-11-11 01:28:20.856,,,,,,,,,,,,,,,,,,,,,,,,,,,,,,,,,,,,,,/muse/elements/blink
2021-11-11 01:28:20.991,1.337569612760943,0.9721218477911874,0,1.365267956865021,1.056911237528689,0.2590970740262513,0,0.899614428414242,0.8302555909205649,0.3676494677995009,0,1.07071740024009,0.8577548746544533,0.392265677539641,0,0.7725101657206472,0.9571668863876895,0.007018633135595202,0,0.5319886202681016,472.2344322344322,765.5677655677656,0,755.0915750915751,815.934065934066,-0.292969,0.318909,0.892944,11.177826,2.123413,8.673096,1,2,1,1,1,40.000000
2021-11-11 01:28:21.155,,,,,,,,,,,,,,,,,,,,,,,,,,,,,,,,,,,,,,/muse/elements/blink
2021-11-11 01:28:21.571,,,,,,,,,,,,,,,,,,,,,,,,,,,,,,,,,,,,,,/muse/elements/blink
2021-11-11 01:28:21.995,1.337569612760943,0.9721218477911874,0,1.365267956865021,1.056911237528689,0.2590970740262513,0,0.899614428414242,0.8302555909205649,0.3676494677995009,0,1.07071740024009,0.8577548746544533,0.392265677539641,0,0.7725101657206472,0.9571668863876895,0.007018633135595202,0,0.5319886202681016,1086.300366300366,659.5970695970697,0,794.5787545787546,765.9706959706959,-0.363525,0.214233,0.883179,8.987122,-0.373840,12.897491,1,2,1,4,2,40.000000
2021-11-11 01:28:22.165,,,,,,,,,,,,,,,,,,,,,,,,,,,,,,,,,,,,,,/muse/elements/jaw_clench
2021-11-11 01:28:22.882,,,,,,,,,,,,,,,,,,,,,,,,,,,,,,,,,,,,,,/muse/elements/jaw_clench
2021-11-11 01:28:22.990,1.337569612760943,0.9721218477911874,1.474777527227385,1.365267956865021,1.056911237528689,0.2590970740262513,1.442591928024405,0.899614428414242,0.8302555909205649,0.3676494677995009,1.377410291579729,1.07071740024009,0.8577548746544533,0.392265677539641,1.101115894970967,0.7725101657206472,0.9571668863876895,0.007018633135595202,0.8995493012975481,0.5319886202681016,946.8864468864469,1061.318681318681,1223.699633699634,907.8021978021978,963.0036630036631,-0.337280,0.352295,0.789062,105.879059,-63.507996,-119.120483,1,2,1,1,2,40.000000
2021-11-11 01:28:23.671,,,,,,,,,,,,,,,,,,,,,,,,,,,,,,,,,,,,,,/muse/elements/blink
2021-11-11 01:28:23.993,1.337569612760943,0.9721218477911874,1.41895269955853,1.365267956865021,1.056911237528689,0.2590970740262513,1.380343133314612,0.899614428414242,0.8302555909205649,0.3676494677995009,1.376723871839802,1.07071740024009,0.8577548746544533,0.392265677539641,1.010655381780626,0.7725101657206472,0.9571668863876895,0.007018633135595202,0.8103419910196903,0.5319886202681016,1068.974358974359,892.0879120879121,0,829.6336996336996,855.0183150183151,-0.279236,0.173096,0.935364,12.082520,-9.458160,-23.275299,1,2,1,1,2,40.000000
2021-11-11 01:28:24.424,,,,,,,,,,,,,,,,,,,,,,,,,,,,,,,,,,,,,,/muse/elements/blink
2021-11-11 01:28:24.606,,,,,,,,,,,,,,,,,,,,,,,,,,,,,,,,,,,,,,/muse/elements/jaw_clench
2021-11-11 01:28:24.990,1.337569612760943,0.9721218477911874,1.41895269955853,1.365267956865021,1.056911237528689,0.2590970740262513,1.380343133314612,0.899614428414242,0.8302555909205649,0.3676494677995009,1.376723871839802,1.07071740024009,0.8577548746544533,0.392265677539641,1.010655381780626,0.7725101657206472,0.9571668863876895,0.007018633135595202,0.8103419910196903,0.5319886202681016,909.4139194139194,839.7069597069598,230.0732600732601,866.7032967032967,642.6739926739926,-0.383972,0.121155,0.906982,17.906952,-5.166473,-25.137024,1,2,1,1,2,40.000000
2021-11-11 01:28:25.990,1.337569612760943,0.9721218477911874,1.41895269955853,1.365267956865021,1.056911237528689,0.2590970740262513,1.380343133314612,0.899614428414242,0.8302555909205649,0.3676494677995009,1.376723871839802,1.07071740024009,0.8577548746544533,0.392265677539641,1.010655381780626,0.7725101657206472,0.9571668863876895,0.007018633135595202,0.8103419910196903,0.5319886202681016,655.9706959706959,756.7032967032967,0,831.6483516483516,881.6117216117217,-0.436096,0.273376,0.833557,-16.598511,10.564728,-5.719757,1,2,1,1,2,40.000000
2021-11-11 01:28:26.627,,,,,,,,,,,,,,,,,,,,,,,,,,,,,,,,,,,,,,/muse/elements/blink
2021-11-11 01:28:26.951,,,,,,,,,,,,,,,,,,,,,,,,,,,,,,,,,,,,,,/muse/elements/blink
2021-11-11 01:28:26.951,,,,,,,,,,,,,,,,,,,,,,,,,,,,,,,,,,,,,,/muse/elements/jaw_clench
2021-11-11 01:28:26.990,1.337569612760943,1.928996921866253,1.027843830100069,1.365267956865021,1.056911237528689,1.045369922417688,0.7837383291817287,0.899614428414242,0.8302555909205649,0.3580389456721295,0.3165535264056619,1.07071740024009,0.8577548746544533,0.7166473790413216,0.8888901847073361,0.7725101657206472,0.9571668863876895,0.6168085693191767,0.6785770868086675,0.5319886202681016,525.018315018315,639.8534798534798,0,759.1208791208792,650.3296703296703,-0.293640,0.083618,0.973206,6.938477,-8.912354,5.345917,1,2,1,1,2,40.000000
2021-11-11 01:28:27.831,,,,,,,,,,,,,,,,,,,,,,,,,,,,,,,,,,,,,,/muse/elements/blink
2021-11-11 01:28:27.831,,,,,,,,,,,,,,,,,,,,,,,,,,,,,,,,,,,,,,/muse/elements/jaw_clench
2021-11-11 01:28:27.990,1.337569612760943,2.023706634127128,1.06824089823609,1.365267956865021,1.056911237528689,1.173581603143181,0.8245381433426692,0.899614428414242,0.8302555909205649,0.3256118697724124,0.3165535264056619,1.07071740024009,0.8577548746544533,0.7157884943092657,0.9409351296598509,0.7725101657206472,0.9571668863876895,0.5302008430420285,0.733743855535726,0.5319886202681016,549.5970695970697,770.8058608058608,0,780.4761904761905,622.5274725274726,-0.370178,0.122620,0.933044,-7.798309,3.992615,43.283234,1,2,1,1,2,40.000000
2021-11-11 01:28:28.268,,,,,,,,,,,,,,,,,,,,,,,,,,,,,,,,,,,,,,/muse/elements/jaw_clench
2021-11-11 01:28:28.775,,,,,,,,,,,,,,,,,,,,,,,,,,,,,,,,,,,,,,/muse/elements/blink
2021-11-11 01:28:28.993,1.337569612760943,2.023706634127128,1.06824089823609,1.365267956865021,1.056911237528689,1.173581603143181,0.8245381433426692,0.899614428414242,0.8302555909205649,0.3256118697724124,0.3165535264056619,1.07071740024009,0.8577548746544533,0.7157884943092657,0.9409351296598509,0.7725101657206472,0.9571668863876895,0.5302008430420285,0.733743855535726,0.5319886202681016,597.1428571428571,461.3553113553114,1623.809523809524,887.6556776556777,828.4249084249085,-0.528320,0.207397,0.893921,34.266205,10.325470,-10.422668,1,2,1,1,2,40.000000
2021-11-11 01:28:29.075,,,,,,,,,,,,,,,,,,,,,,,,,,,,,,,,,,,,,,/muse/elements/blink
2021-11-11 01:28:29.773,,,,,,,,,,,,,,,,,,,,,,,,,,,,,,,,,,,,,,/muse/elements/blink
2021-11-11 01:28:29.990,1.337569612760943,2.023706634127128,1.06824089823609,1.365267956865021,1.056911237528689,1.173581603143181,0.8245381433426692,0.899614428414242,0.8302555909205649,0.3256118697724124,0.3165535264056619,1.07071740024009,0.8577548746544533,0.7157884943092657,0.9409351296598509,0.7725101657206472,0.9571668863876895,0.5302008430420285,0.733743855535726,0.5319886202681016,568.9377289377289,666.0439560439561,0,812.7106227106227,709.1575091575091,-0.182617,0.545471,0.782654,29.555817,-0.411224,2.766418,1,2,1,4,2,40.000000
2021-11-11 01:28:30.990,,,,,,,,,,,,,,,,,,,,,,,,,,,,,,,,,,,,,,/muse/elements/jaw_clench
2021-11-11 01:28:31.001,1.337569612760943,2.023706634127128,1.06824089823609,1.365267956865021,1.056911237528689,1.173581603143181,0.8245381433426692,0.899614428414242,0.8302555909205649,0.3256118697724124,0.3165535264056619,1.07071740024009,0.8577548746544533,0.7157884943092657,0.9409351296598509,0.7725101657206472,0.9571668863876895,0.5302008430420285,0.733743855535726,0.5319886202681016,522.1978021978022,782.893772893773,141.8315018315018,729.7069597069598,1010.14652014652,-0.488037,0.543030,0.643616,27.073517,-46.184235,5.473022,1,2,1,4,2,40.000000
2021-11-11 01:28:31.594,,,,,,,,,,,,,,,,,,,,,,,,,,,,,,,,,,,,,,/muse/elements/blink
2021-11-11 01:28:31.594,,,,,,,,,,,,,,,,,,,,,,,,,,,,,,,,,,,,,,/muse/elements/jaw_clench
2021-11-11 01:28:31.990,1.337569612760943,1.124258947118738,1.06824089823609,1.365267956865021,1.056911237528689,0.1087881117207359,0.8245381433426692,0.899614428414242,0.8302555909205649,0.3352099127635306,0.3165535264056619,1.07071740024009,0.8577548746544533,0.7970017869538255,0.9409351296598509,0.7725101657206472,0.9571668863876895,0.3439936819191262,0.733743855535726,0.5319886202681016,662.4175824175825,745.4212454212454,0,876.7765567765568,410.5860805860806,-0.340210,0.254883,0.924255,2.063599,30.826874,4.314117,1,2,1,4,2,40.000000
2021-11-11 01:28:32.333,,,,,,,,,,,,,,,,,,,,,,,,,,,,,,,,,,,,,,/muse/elements/blink
2021-11-11 01:28:32.815,,,,,,,,,,,,,,,,,,,,,,,,,,,,,,,,,,,,,,/muse/elements/blink
2021-11-11 01:28:32.990,1.337569612760943,1.170631348092738,1.06824089823609,1.365267956865021,1.056911237528689,0.2134735898541203,0.8245381433426692,0.899614428414242,0.8302555909205649,0.2561634128199191,0.3165535264056619,1.07071740024009,0.8577548746544533,0.7974792998035317,0.9409351296598509,0.7725101657206472,0.9571668863876895,0.2157613790629333,0.733743855535726,0.5319886202681016,756.3003663003664,813.919413919414,0,691.8315018315019,323.1501831501832,-0.048401,0.905273,0.794617,-86.887970,2.228088,244.985046,1,2,1,1,2,40.000000
2021-11-11 01:28:33.228,,,,,,,,,,,,,,,,,,,,,,,,,,,,,,,,,,,,,,/muse/elements/blink
2021-11-11 01:28:33.228,,,,,,,,,,,,,,,,,,,,,,,,,,,,,,,,,,,,,,/muse/elements/jaw_clench
2021-11-11 01:28:33.990,1.337569612760943,1.170631348092738,1.06824089823609,1.365267956865021,1.056911237528689,0.2134735898541203,0.8245381433426692,0.899614428414242,0.8302555909205649,0.2561634128199191,0.3165535264056619,1.07071740024009,0.8577548746544533,0.7974792998035317,0.9409351296598509,0.7725101657206472,0.9571668863876895,0.2157613790629333,0.733743855535726,0.5319886202681016,1049.6336996337,1073.406593406593,0,911.4285714285714,814.3223443223443,0.729614,0.621765,0.445679,24.202423,32.920380,-107.875366,1,2,1,4,2,40.000000
2021-11-11 01:28:34.785,,,,,,,,,,,,,,,,,,,,,,,,,,,,,,,,,,,,,,/muse/elements/blink
2021-11-11 01:28:34.990,1.337569612760943,1.170631348092738,1.06824089823609,1.365267956865021,1.056911237528689,0.2134735898541203,0.8245381433426692,0.899614428414242,0.8302555909205649,0.2561634128199191,0.3165535264056619,1.07071740024009,0.8577548746544533,0.7974792998035317,0.9409351296598509,0.7725101657206472,0.9571668863876895,0.2157613790629333,0.733743855535726,0.5319886202681016,738.5714285714286,732.9304029304029,1340.549450549451,842.5274725274726,760.3296703296703,-0.039368,0.374268,1.001831,31.245575,23.993073,2.228088,1,2,4,4,2,40.000000
2021-11-11 01:28:36.002,1.337569612760943,1.170631348092738,1.06824089823609,1.365267956865021,1.056911237528689,0.2134735898541203,0.8245381433426692,0.899614428414242,0.8302555909205649,0.2561634128199191,0.3165535264056619,1.07071740024009,0.8577548746544533,0.7974792998035317,0.9409351296598509,0.7725101657206472,0.9571668863876895,0.2157613790629333,0.733743855535726,0.5319886202681016,546.7765567765568,748.6446886446887,0,720.8424908424909,640.6593406593407,-0.210815,0.218811,0.948059,-3.140259,-8.194580,-11.918030,1,2,1,1,2,40.000000
2021-11-11 01:28:36.457,,,,,,,,,,,,,,,,,,,,,,,,,,,,,,,,,,,,,,/muse/elements/jaw_clench
2021-11-11 01:28:36.782,,,,,,,,,,,,,,,,,,,,,,,,,,,,,,,,,,,,,,/muse/elements/blink
2021-11-11 01:28:36.997,1.337569612760943,1.283243820491884,1.06824089823609,1.365267956865021,1.056911237528689,0.333804399723968,0.8245381433426692,0.899614428414242,0.8302555909205649,0.4115750757922591,0.3165535264056619,1.07071740024009,0.8577548746544533,0.7677659233050704,0.9409351296598509,0.7725101657206472,0.9571668863876895,0.6165904388844566,0.733743855535726,0.5319886202681016,874.3589743589744,841.3186813186813,96.7032967032967,794.981684981685,1013.772893772894,-0.251099,0.294189,1.117249,5.674896,-18.617249,18.273315,1,2,1,4,2,40.000000
2021-11-11 01:28:37.926,,,,,,,,,,,,,,,,,,,,,,,,,,,,,,,,,,,,,,/muse/elements/blink
2021-11-11 01:28:37.990,1.337569612760943,1.476462675324744,1.06824089823609,1.365267956865021,1.056911237528689,0.4183801793225564,0.8245381433426692,0.899614428414242,0.8302555909205649,0.4267375991967252,0.3165535264056619,1.07071740024009,0.8577548746544533,0.7939005451410672,0.9409351296598509,0.7725101657206472,0.9571668863876895,0.6874400370109964,0.733743855535726,0.5319886202681016,864.6886446886447,680.5494505494506,0,791.7582417582418,674.5054945054945,-0.038879,-0.220337,0.931030,-46.550598,29.286652,-15.663910,1,2,1,4,2,40.000000
2021-11-11 01:28:38.430,,,,,,,,,,,,,,,,,,,,,,,,,,,,,,,,,,,,,,/muse/elements/blink
2021-11-11 01:28:38.997,1.337569612760943,1.626043223599116,1.06824089823609,1.365267956865021,1.056911237528689,0.5060161780553819,0.8245381433426692,0.899614428414242,0.8302555909205649,0.4216434592817571,0.3165535264056619,1.07071740024009,0.8577548746544533,0.8549672649274125,0.9409351296598509,0.7725101657206472,0.9571668863876895,0.6502367683460887,0.733743855535726,0.5319886202681016,838.4981684981685,753.8827838827839,0,815.934065934066,725.6776556776557,0.012024,-0.227417,0.970886,10.160980,-6.243134,-13.032074,1,2,1,2,2,40.000000
2021-11-11 01:28:39.937,,,,,,,,,,,,,,,,,,,,,,,,,,,,,,,,,,,,,,/muse/elements/blink
2021-11-11 01:28:39.996,1.337569612760943,0.9736294575458331,1.06824089823609,1.365267956865021,1.056911237528689,0.4430639958284853,0.8245381433426692,0.899614428414242,0.8302555909205649,1.073251725974684,0.3165535264056619,1.07071740024009,0.8577548746544533,1.286792857408612,0.9409351296598509,0.7725101657206472,0.9571668863876895,1.321817038586302,0.733743855535726,0.5319886202681016,835.2747252747253,712.3809523809524,142.6373626373626,883.6263736263736,796.996336996337,-0.306152,-0.349609,0.868713,-17.159271,17.032166,-13.271332,1,2,1,2,2,40.000000
2021-11-11 01:28:40.990,1.337569612760943,1.039934034692743,1.06824089823609,1.365267956865021,1.056911237528689,0.5439339759967134,0.8245381433426692,0.899614428414242,0.8302555909205649,0.9011979868233992,0.3165535264056619,1.07071740024009,0.8577548746544533,1.219723347425642,0.9409351296598509,0.7725101657206472,0.9571668863876895,1.216834200475441,0.733743855535726,0.5319886202681016,892.0879120879121,775.6410256410256,0,775.6410256410256,769.5970695970697,-0.337158,-0.598816,0.680481,19.843445,30.819397,33.234406,1,2,1,1,2,40.000000
2021-11-11 01:28:41.672,,,,,,,,,,,,,,,,,,,,,,,,,,,,,,,,,,,,,,/muse/elements/jaw_clench
2021-11-11 01:28:41.990,1.337569612760943,1.039934034692743,1.06824089823609,1.365267956865021,1.056911237528689,0.5439339759967134,0.8245381433426692,0.899614428414242,0.8302555909205649,0.9011979868233992,0.3165535264056619,1.07071740024009,0.8577548746544533,1.219723347425642,0.9409351296598509,0.7725101657206472,0.9571668863876895,1.216834200475441,0.733743855535726,0.5319886202681016,760.7326007326008,811.9047619047619,357.8021978021978,857.8388278388279,599.5604395604396,-0.767517,-0.051941,0.730713,21.600494,-17.488251,39.836426,1,2,1,1,2,40.000000
2021-11-11 01:28:42.087,,,,,,,,,,,,,,,,,,,,,,,,,,,,,,,,,,,,,,/muse/elements/jaw_clench
2021-11-11 01:28:42.784,,,,,,,,,,,,,,,,,,,,,,,,,,,,,,,,,,,,,,/muse/elements/blink
2021-11-11 01:28:42.990,1.337569612760943,1.039934034692743,1.06824089823609,1.365267956865021,1.056911237528689,0.5439339759967134,0.8245381433426692,0.899614428414242,0.8302555909205649,0.9011979868233992,0.3165535264056619,1.07071740024009,0.8577548746544533,1.219723347425642,0.9409351296598509,0.7725101657206472,0.9571668863876895,1.216834200475441,0.733743855535726,0.5319886202681016,782.0879120879121,780.4761904761905,525.4212454212454,747.032967032967,0,-0.553406,0.194946,0.720276,21.406097,30.998840,6.377716,1,2,1,2,2,40.000000
2021-11-11 01:28:43.180,,,,,,,,,,,,,,,,,,,,,,,,,,,,,,,,,,,,,,/muse/elements/blink
2021-11-11 01:28:43.788,,,,,,,,,,,,,,,,,,,,,,,,,,,,,,,,,,,,,,/muse/elements/blink
2021-11-11 01:28:43.990,1.337569612760943,1.039934034692743,1.06824089823609,1.365267956865021,1.056911237528689,0.5439339759967134,0.8245381433426692,0.899614428414242,0.8302555909205649,0.9011979868233992,0.3165535264056619,1.07071740024009,0.8577548746544533,1.219723347425642,0.9409351296598509,0.7725101657206472,0.9571668863876895,1.216834200475441,0.733743855535726,0.5319886202681016,1623.809523809524,804.2490842490843,0,660.4029304029305,552.014652014652,-0.805176,0.241821,0.338318,-26.804352,-22.879028,23.365021,1,4,2,4,2,40.000000
2021-11-11 01:28:44.300,,,,,,,,,,,,,,,,,,,,,,,,,,,,,,,,,,,,,,/muse/elements/blink
2021-11-11 01:28:44.717,,,,,,,,,,,,,,,,,,,,,,,,,,,,,,,,,,,,,,/muse/elements/jaw_clench
2021-11-11 01:28:44.812,,,,,,,,,,,,,,,,,,,,,,,,,,,,,,,,,,,,,,/muse/elements/blink
2021-11-11 01:28:44.990,1.337569612760943,1.039934034692743,1.06824089823609,1.365267956865021,1.056911237528689,0.5439339759967134,0.8245381433426692,0.899614428414242,0.8302555909205649,0.9011979868233992,0.3165535264056619,1.07071740024009,0.8577548746544533,1.219723347425642,0.9409351296598509,0.7725101657206472,0.9571668863876895,1.216834200475441,0.733743855535726,0.5319886202681016,1623.406593406593,1212.820512820513,251.025641025641,743.8095238095239,0,-0.671509,0.239929,0.327393,-14.056396,-115.023193,2.572021,1,4,1,4,2,40.000000
2021-11-11 01:28:45.232,,,,,,,,,,,,,,,,,,,,,,,,,,,,,,,,,,,,,,/muse/elements/blink
2021-11-11 01:28:45.513,,,,,,,,,,,,,,,,,,,,,,,,,,,,,,,,,,,,,,/muse/elements/blink
2021-11-11 01:28:45.744,,,,,,,,,,,,,,,,,,,,,,,,,,,,,,,,,,,,,,/muse/elements/blink
2021-11-11 01:28:45.932,,,,,,,,,,,,,,,,,,,,,,,,,,,,,,,,,,,,,,/muse/elements/blink
2021-11-11 01:28:45.990,1.337569612760943,1.039934034692743,1.06824089823609,1.365267956865021,1.056911237528689,0.5439339759967134,0.8245381433426692,0.899614428414242,0.8302555909205649,0.9011979868233992,0.3165535264056619,1.07071740024009,0.8577548746544533,1.219723347425642,0.9409351296598509,0.7725101657206472,0.9571668863876895,1.216834200475441,0.733743855535726,0.5319886202681016,681.7582417582418,705.1282051282052,0,895.3113553113553,1623.003663003663,-0.100952,0.500610,0.938782,36.815796,-2.945862,29.174500,1,4,2,4,2,40.000000
2021-11-11 01:28:46.350,,,,,,,,,,,,,,,,,,,,,,,,,,,,,,,,,,,,,,/muse/elements/blink
2021-11-11 01:28:46.954,,,,,,,,,,,,,,,,,,,,,,,,,,,,,,,,,,,,,,/muse/elements/blink
2021-11-11 01:28:46.990,1.337569612760943,1.039934034692743,1.06824089823609,1.365267956865021,1.056911237528689,0.5439339759967134,0.8245381433426692,0.899614428414242,0.8302555909205649,0.9011979868233992,0.3165535264056619,1.07071740024009,0.8577548746544533,1.219723347425642,0.9409351296598509,0.7725101657206472,0.9571668863876895,1.216834200475441,0.733743855535726,0.5319886202681016,273.1868131868132,672.0879120879121,0,772.4175824175825,6.043956043956044,-0.375061,0.399475,0.810730,-15.245209,17.540588,-7.574005,1,4,2,1,2,40.000000
2021-11-11 01:28:47.236,,,,,,,,,,,,,,,,,,,,,,,,,,,,,,,,,,,,,,/muse/elements/jaw_clench
2021-11-11 01:28:47.445,,,,,,,,,,,,,,,,,,,,,,,,,,,,,,,,,,,,,,/muse/elements/jaw_clench
2021-11-11 01:28:47.990,1.337569612760943,1.039934034692743,1.06824089823609,1.365267956865021,1.056911237528689,0.5439339759967134,0.8245381433426692,0.899614428414242,0.8302555909205649,0.9011979868233992,0.3165535264056619,1.07071740024009,0.8577548746544533,1.219723347425642,0.9409351296598509,0.7725101657206472,0.9571668863876895,1.216834200475441,0.733743855535726,0.5319886202681016,57.21611721611722,685.7875457875458,30.62271062271062,731.3186813186813,886.0439560439561,-0.682617,0.155090,0.781860,17.024689,-18.258362,-29.570770,1,2,2,2,2,40.000000
2021-11-11 01:28:48.992,1.337569612760943,1.039934034692743,1.06824089823609,1.365267956865021,1.056911237528689,0.5439339759967134,0.8245381433426692,0.899614428414242,0.8302555909205649,0.9011979868233992,0.3165535264056619,1.07071740024009,0.8577548746544533,1.219723347425642,0.9409351296598509,0.7725101657206472,0.9571668863876895,1.216834200475441,0.733743855535726,0.5319886202681016,43.11355311355312,789.7435897435897,0,795.7875457875458,841.3186813186813,-0.715332,0.784729,0.775574,1.899109,-20.950012,36.344757,1,4,2,2,2,40.000000
2021-11-11 01:28:49.990,1.337569612760943,1.884487134843373,1.06824089823609,1.365267956865021,1.056911237528689,1.321681289023677,0.8245381433426692,0.899614428414242,0.8302555909205649,0.8785136166865383,0.3165535264056619,1.07071740024009,0.8577548746544533,0.5148429757157357,0.9409351296598509,0.7725101657206472,0.9571668863876895,0.4165471120122802,0.733743855535726,0.5319886202681016,668.0586080586081,732.1245421245421,0,763.1501831501831,907.8021978021978,-0.387817,0.325256,1.127869,-3.394470,-32.823181,-21.166840,1,4,1,4,2,40.000000
2021-11-11 01:28:50.610,,,,,,,,,,,,,,,,,,,,,,,,,,,,,,,,,,,,,,/muse/elements/blink
2021-11-11 01:28:50.994,1.337569612760943,1.312706962542896,1.06824089823609,1.365267956865021,1.056911237528689,0.7678404228995276,0.8245381433426692,0.899614428414242,0.8302555909205649,0.7539312802652351,0.3165535264056619,1.07071740024009,0.8577548746544533,0.5290042084201414,0.9409351296598509,0.7725101657206472,0.9571668863876895,0.3057290096664202,0.733743855535726,0.5319886202681016,471.4285714285714,704.3223443223443,0,675.7142857142858,0,0.058716,-0.160461,0.835999,12.897491,-46.819763,17.368622,1,2,1,4,2,40.000000
2021-11-11 01:28:51.102,,,,,,,,,,,,,,,,,,,,,,,,,,,,,,,,,,,,,,/muse/elements/blink
2021-11-11 01:28:51.406,,,,,,,,,,,,,,,,,,,,,,,,,,,,,,,,,,,,,,/muse/elements/blink
2021-11-11 01:28:52.000,1.337569612760943,1.647054296552754,1.06824089823609,1.365267956865021,1.056911237528689,0.7129188911716813,0.8245381433426692,0.899614428414242,0.8302555909205649,0.5064477728277691,0.3165535264056619,1.07071740024009,0.8577548746544533,0.4719949048238805,0.9409351296598509,0.7725101657206472,0.9571668863876895,0.3655603798324393,0.733743855535726,0.5319886202681016,1119.74358974359,713.992673992674,1627.838827838828,958.1684981684982,920.6959706959707,-0.101807,0.354126,0.840881,-3.618774,-191.809998,196.139069,1,2,1,4,2,40.000000
2021-11-11 01:28:52.129,,,,,,,,,,,,,,,,,,,,,,,,,,,,,,,,,,,,,,/muse/elements/blink
2021-11-11 01:28:52.449,,,,,,,,,,,,,,,,,,,,,,,,,,,,,,,,,,,,,,/muse/elements/blink
2021-11-11 01:28:52.914,,,,,,,,,,,,,,,,,,,,,,,,,,,,,,,,,,,,,,/muse/elements/blink
2021-11-11 01:28:52.991,1.337569612760943,1.987931336313385,1.06824089823609,1.365267956865021,1.056911237528689,0.4434708029144468,0.8245381433426692,0.899614428414242,0.8302555909205649,0.1889683433062947,0.3165535264056619,1.07071740024009,0.8577548746544533,0.6403901465380164,0.9409351296598509,0.7725101657206472,0.9571668863876895,0.4918880021884545,0.733743855535726,0.5319886202681016,474.2490842490843,838.0952380952381,1623.809523809524,989.1941391941392,900.1465201465202,-0.142029,0.233459,1.022949,4.336548,59.365845,5.226288,1,4,1,4,2,40.000000
2021-11-11 01:28:53.671,,,,,,,,,,,,,,,,,,,,,,,,,,,,,,,,,,,,,,/muse/elements/blink
2021-11-11 01:28:53.990,1.337569612760943,1.987931336313385,1.06824089823609,1.365267956865021,1.056911237528689,0.4434708029144468,0.8245381433426692,0.899614428414242,0.8302555909205649,0.1889683433062947,0.3165535264056619,1.07071740024009,0.8577548746544533,0.6403901465380164,0.9409351296598509,0.7725101657206472,0.9571668863876895,0.4918880021884545,0.733743855535726,0.5319886202681016,1319.59706959707,790.952380952381,0,833.6630036630037,570.1465201465202,0.141174,0.369080,1.042175,17.002258,-4.284210,17.047119,1,4,4,4,2,40.000000
2021-11-11 01:28:54.288,,,,,,,,,,,,,,,,,,,,,,,,,,,,,,,,,,,,,,/muse/elements/blink
2021-11-11 01:28:54.662,,,,,,,,,,,,,,,,,,,,,,,,,,,,,,,,,,,,,,/muse/elements/blink
2021-11-11 01:28:54.992,1.337569612760943,1.987931336313385,1.06824089823609,1.365267956865021,1.056911237528689,0.4434708029144468,0.8245381433426692,0.899614428414242,0.8302555909205649,0.1889683433062947,0.3165535264056619,1.07071740024009,0.8577548746544533,0.6403901465380164,0.9409351296598509,0.7725101657206472,0.9571668863876895,0.4918880021884545,0.733743855535726,0.5319886202681016,948.0952380952381,763.5531135531136,1236.996336996337,615.6776556776557,713.992673992674,0.001221,0.127686,0.784302,25.264130,45.002899,-29.376373,1,2,2,4,2,40.000000
2021-11-11 01:28:55.167,,,,,,,,,,,,,,,,,,,,,,,,,,,,,,,,,,,,,,/muse/elements/blink
2021-11-11 01:28:55.994,1.337569612760943,1.987931336313385,1.06824089823609,1.365267956865021,1.056911237528689,0.4434708029144468,0.8245381433426692,0.899614428414242,0.8302555909205649,0.1889683433062947,0.3165535264056619,1.07071740024009,0.8577548746544533,0.6403901465380164,0.9409351296598509,0.7725101657206472,0.9571668863876895,0.4918880021884545,0.733743855535726,0.5319886202681016,1253.919413919414,800.2197802197802,0,843.3333333333334,724.0659340659341,-0.586548,0.254028,0.755127,2.998199,-4.052429,1.233673,1,2,1,4,2,40.000000
2021-11-11 01:28:56.990,1.337569612760943,0.7883900985834486,1.06824089823609,1.365267956865021,1.056911237528689,0.1381012337652182,0.8245381433426692,0.899614428414242,0.8302555909205649,0.6779079596882143,0.3165535264056619,1.07071740024009,0.8577548746544533,0.9451762343937417,0.9409351296598509,0.7725101657206472,0.9571668863876895,0.7019451331803367,0.733743855535726,0.5319886202681016,1635.091575091575,838.0952380952381,1226.520146520146,824.3956043956044,850.1831501831502,-0.357971,0.283142,0.940857,8.336639,-7.723541,0.044861,1,2,1,2,2,40.000000
2021-11-11 01:28:57.999,1.337569612760943,0.4711956735962345,1.06824089823609,1.365267956865021,1.056911237528689,0.001826480620178218,0.8245381433426692,0.899614428414242,0.8302555909205649,0.4658263999616686,0.3165535264056619,1.07071740024009,0.8577548746544533,0.992845064659677,0.9409351296598509,0.7725101657206472,0.9571668863876895,0.6298557564168691,0.733743855535726,0.5319886202681016,1104.029304029304,785.7142857142858,176.4835164835165,776.8498168498169,756.3003663003664,-0.339783,0.287292,0.898560,0.927124,-3.790741,-5.697327,1,2,1,2,2,40.000000
2021-11-11 01:28:58.126,,,,,,,,,,,,,,,,,,,,,,,,,,,,,,,,,,,,,,/muse/elements/jaw_clench
2021-11-11 01:28:58.405,,,,,,,,,,,,,,,,,,,,,,,,,,,,,,,,,,,,,,/muse/elements/blink
2021-11-11 01:28:58.989,1.337569612760943,0.4258879709567323,1.06824089823609,1.365267956865021,1.056911237528689,0.3173710830972375,0.8245381433426692,0.899614428414242,0.8302555909205649,0.2070388498941824,0.3165535264056619,1.07071740024009,0.8577548746544533,0.4228129407442118,0.9409351296598509,0.7725101657206472,0.9571668863876895,0.3875194684298096,0.733743855535726,0.5319886202681016,1085.091575091575,792.967032967033,469.010989010989,796.996336996337,773.6263736263736,-0.310364,0.265076,0.920959,-5.585175,-14.400330,-12.478790,1,2,1,2,2,40.000000
2021-11-11 01:28:59.993,1.337569612760943,0.6513253296992738,1.06824089823609,1.545719580575303,1.056911237528689,0.2809361877560737,0.8245381433426692,1.08713009402608,0.8302555909205649,0.2396824014347038,0.3165535264056619,0.8579870192176362,0.8577548746544533,0.3265566408312411,0.9409351296598509,0.8833754303556073,0.9571668863876895,0.06741064102796947,0.733743855535726,0.9434374768649659,1161.245421245421,792.967032967033,923.5164835164835,830.4395604395604,854.6153846153846,-0.046875,-0.010803,0.952332,-1.532745,2.437439,-10.317993,1,2,1,2,1,40.000000
2021-11-11 01:29:00.994,1.337569612760943,1.28048939442208,1.06824089823609,1.035029972005896,1.056911237528689,0.8570226401680106,0.8245381433426692,0.6553133699144029,0.8302555909205649,0.8233545118420954,0.3165535264056619,0.6638617583896091,0.8577548746544533,0.4991438036557903,0.9409351296598509,0.9084835733112928,0.9571668863876895,0.4252045435055726,0.733743855535726,0.805550141313398,1017.802197802198,807.0695970695971,147.4725274725275,811.5018315018315,713.5897435897436,-0.040222,-0.027893,0.998474,5.540314,-3.469238,0.022430,1,1,1,2,1,40.000000
2021-11-11 01:29:01.358,,,,,,,,,,,,,,,,,,,,,,,,,,,,,,,,,,,,,,/muse/elements/blink
2021-11-11 01:29:01.867,,,,,,,,,,,,,,,,,,,,,,,,,,,,,,,,,,,,,,/muse/elements/blink
2021-11-11 01:29:01.990,1.337569612760943,1.332354523095861,1.06824089823609,0.4820978586845264,1.056911237528689,1.03359498481945,0.8245381433426692,0.5455477460410514,0.8302555909205649,0.896201999115278,0.3165535264056619,0.6314849530737286,0.8577548746544533,0.6169156893076607,0.9409351296598509,0.885530630245121,0.9571668863876895,0.4287611216153832,0.733743855535726,0.69965286991154,976.3003663003664,861.4652014652015,513.7362637362637,749.047619047619,1031.098901098901,0.069519,0.003296,1.013855,-0.485992,-6.026306,-14.602203,1,2,1,2,1,40.000000
2021-11-11 01:29:02.210,,,,,,,,,,,,,,,,,,,,,,,,,,,,,,,,,,,,,,/muse/elements/blink
2021-11-11 01:29:02.376,,,,,,,,,,,,,,,,,,,,,,,,,,,,,,,,,,,,,,/muse/elements/blink
2021-11-11 01:29:02.989,1.337569612760943,1.391701836676396,1.06824089823609,0.4369300516941576,1.056911237528689,1.099096789082952,0.8245381433426692,0.5693038947338377,0.8302555909205649,0.8459444378249632,0.3165535264056619,0.5882974156098556,0.8577548746544533,0.6882909337408152,0.9409351296598509,0.8933180436492045,0.9571668863876895,0.338885782342379,0.733743855535726,0.7234883654220543,743.4065934065934,776.0439560439561,267.948717948718,788.9377289377289,731.3186813186813,-0.078064,0.181641,1.005371,12.785339,0.336456,0.224304,1,2,1,2,1,40.000000
2021-11-11 01:29:03.990,1.337569612760943,0.2786680033347401,1.06824089823609,0.4207983966760009,1.056911237528689,-0.1032544835401713,0.8245381433426692,0.8753556860418938,0.8302555909205649,0.338867278530899,0.3165535264056619,0.8675723761751967,0.8577548746544533,0.6584365546730229,0.9409351296598509,0.9083343619308226,0.9571668863876895,0.1120466854384518,0.733743855535726,0.6475502809692801,859.047619047619,811.0989010989011,386.007326007326,792.1611721611722,698.6813186813187,-0.179504,0.189087,0.984436,1.345825,-3.110352,2.100983,1,1,1,2,1,40.000000
2021-11-11 01:29:04.989,1.337569612760943,0.5243280702663468,1.06824089823609,0.6110328901835799,1.056911237528689,-0.0124860775340918,0.8245381433426692,0.5093318205830365,0.8302555909205649,0.346996860847061,0.3165535264056619,0.8302131583417713,0.8577548746544533,0.5088465836805757,0.9409351296598509,0.7993122647535272,0.9571668863876895,0.1421721457467165,0.733743855535726,0.5816014731870253,706.7399267399268,784.5054945054945,568.5347985347986,789.7435897435897,806.6666666666667,-0.177185,0.171082,0.975525,4.358978,-4.732819,3.416901,1,1,1,2,1,35.000000
2021-11-11 01:29:05.616,,,,,,,,,,,,,,,,,,,,,,,,,,,,,,,,,,,,,,/muse/elements/blink
2021-11-11 01:29:05.991,1.337569612760943,1.389693513247356,1.06824089823609,0.8349161468305381,1.056911237528689,0.2594308811479422,0.8245381433426692,0.31011754496032,0.8302555909205649,0.2750272370024048,0.3165535264056619,0.4075849822688867,0.8577548746544533,0.3408519349041436,0.9409351296598509,0.5341824797215617,0.9571668863876895,0.2212591700766856,0.733743855535726,0.4830997661836494,474.2490842490843,761.5384615384615,171.6483516483516,743.0036630036631,694.2490842490843,-0.102722,0.298096,0.999451,10.519867,-13.981628,2.549591,1,1,1,2,1,35.000000
2021-11-11 01:29:06.464,,,,,,,,,,,,,,,,,,,,,,,,,,,,,,,,,,,,,,/muse/elements/blink
2021-11-11 01:29:06.999,1.337569612760943,1.343894582764678,1.06824089823609,1.007331429218024,1.056911237528689,0.3320185603556952,0.8245381433426692,0.5674336395960012,0.8302555909205649,0.3541410882651025,0.3165535264056619,0.4011246159657631,0.8577548746544533,0.5010572473766121,0.9409351296598509,0.4430056627765743,0.9571668863876895,0.271473565977794,0.733743855535726,0.5182648186997999,434.3589743589744,764.7619047619048,0,811.5018315018315,680.952380952381,-0.242493,0.194885,0.952332,14.901276,-21.211700,15.985413,1,1,1,2,1,35.000000
2021-11-11 01:29:07.953,,,,,,,,,,,,,,,,,,,,,,,,,,,,,,,,,,,,,,/muse/elements/jaw_clench
2021-11-11 01:29:07.989,1.337569612760943,0.7463548699393759,1.06824089823609,1.007331429218024,1.056911237528689,0.2510329907839206,0.8245381433426692,0.5674336395960012,0.8302555909205649,0.2974407580604153,0.3165535264056619,0.4011246159657631,0.8577548746544533,0.5711194168190651,0.9409351296598509,0.4430056627765743,0.9571668863876895,0.3564665393530537,0.733743855535726,0.5182648186997999,482.7106227106227,771.6117216117216,1468.278388278388,805.0549450549451,688.2051282051282,-0.026917,0.393799,0.880493,-4.007568,8.164673,-14.946136,1,1,1,4,1,35.000000
2021-11-11 01:29:08.997,1.337569612760943,0.3377102535673842,1.06824089823609,1.61232506944674,1.056911237528689,0.1278456811892752,0.8245381433426692,0.8424676640905798,0.8302555909205649,0.1728753876228275,0.3165535264056619,1.039640527699066,0.8577548746544533,0.623972779980413,0.9409351296598509,0.9100311674857474,0.9571668863876895,0.2602177308288997,0.733743855535726,0.9975849479793288,471.0256410256411,782.0879120879121,72.12454212454213,707.5457875457876,480.2930402930403,-0.112793,0.193115,0.964905,7.865601,-6.721649,-8.800201,1,1,1,2,1,35.000000
2021-11-11 01:29:09.989,1.337569612760943,0.7836564603230378,1.06824089823609,1.308639024054859,1.056911237528689,0.3358998266931561,0.8245381433426692,0.6027791939359122,0.8302555909205649,0.2856752060659735,0.3165535264056619,0.9159327813961173,0.8577548746544533,0.4595545580606623,0.9409351296598509,0.9036601497614054,0.9571668863876895,0.09983314868455312,0.733743855535726,1.039792865243027,816.3369963369963,785.3113553113553,184.5421245421246,809.4871794871796,782.0879120879121,-0.239319,0.149353,0.986450,3.087921,-0.373840,-10.564728,1,1,1,2,1,35.000000
2021-11-11 01:29:10.739,,,,,,,,,,,,,,,,,,,,,,,,,,,,,,,,,,,,,,/muse/elements/blink
2021-11-11 01:29:10.988,1.337569612760943,0.5154214401680968,1.06824089823609,0.3818962256944762,1.056911237528689,0.06736695224610993,0.8245381433426692,0.2257945377288462,0.8302555909205649,0.2271663625299946,0.3165535264056619,0.659414204537135,0.8577548746544533,0.2842859065179267,0.9409351296598509,0.8112754788581801,0.9571668863876895,0.05998867843177839,0.733743855535726,0.8482581281112345,765.5677655677656,765.5677655677656,257.4725274725275,801.4285714285714,804.2490842490843,-0.265442,0.166931,0.947876,4.695435,1.540222,-5.779572,1,1,1,2,1,35.000000
2021-11-11 01:29:11.951,,,,,,,,,,,,,,,,,,,,,,,,,,,,,,,,,,,,,,/muse/elements/blink
2021-11-11 01:29:11.989,1.337569612760943,0.5298428457865595,1.06824089823609,1.516453234671617,1.056911237528689,0.06338740251012709,0.8245381433426692,0.9025996096054216,0.8302555909205649,0.2661732523844911,0.3165535264056619,1.055912536369271,0.8577548746544533,0.3229368562396749,0.9409351296598509,0.9884578789100346,0.9571668863876895,0.2033565584252413,0.733743855535726,0.7818879931413211,940.8424908424909,798.6080586080586,226.0439560439561,801.025641025641,665.2380952380953,-0.262268,0.091003,0.916321,-1.248627,9.562836,14.101257,1,1,1,2,1,35.000000
2021-11-11 01:29:12.989,1.337569612760943,0.297725802248853,1.06824089823609,1.516453234671617,1.056911237528689,0.1081121104797147,0.8245381433426692,0.9025996096054216,0.8302555909205649,0.3224613489981602,0.3165535264056619,1.055912536369271,0.8577548746544533,0.3526144697093265,0.9409351296598509,0.9884578789100346,0.9571668863876895,0.1266451473655448,0.733743855535726,0.7818879931413211,535.0915750915751,785.3113553113553,405.7509157509157,662.014652014652,610.0366300366301,-0.370178,0.159241,0.905823,9.861908,7.910461,9.824524,1,1,1,2,1,35.000000
2021-11-11 01:29:13.163,,,,,,,,,,,,,,,,,,,,,,,,,,,,,,,,,,,,,,/muse/elements/blink
2021-11-11 01:29:13.874,,,,,,,,,,,,,,,,,,,,,,,,,,,,,,,,,,,,,,/muse/elements/blink
2021-11-11 01:29:13.989,1.337569612760943,0.8511437891023904,1.06824089823609,1.516453234671617,1.056911237528689,0.2811133071475175,0.8245381433426692,0.9025996096054216,0.8302555909205649,0.4941349444982523,0.3165535264056619,1.055912536369271,0.8577548746544533,0.324195981022701,0.9409351296598509,0.9884578789100346,0.9571668863876895,0.05477570684848253,0.733743855535726,0.7818879931413211,957.7655677655678,800.2197802197802,27.3992673992674,800.2197802197802,855.8241758241759,-0.240906,0.321655,0.927063,-4.418793,-12.635803,-3.200073,1,2,1,4,2,35.000000
2021-11-11 01:29:14.989,1.337569612760943,0.8974663721211202,1.06824089823609,1.516453234671617,1.056911237528689,0.2887764941861294,0.8245381433426692,0.9025996096054216,0.8302555909205649,0.4746860951232108,0.3165535264056619,1.055912536369271,0.8577548746544533,0.3979753150323183,0.9409351296598509,0.9884578789100346,0.9571668863876895,0.1320366339072943,0.733743855535726,0.7818879931413211,1051.245421245421,799.4139194139194,217.985347985348,813.1135531135532,735.7509157509157,-0.203003,0.260559,0.972534,2.332764,-10.205841,4.157104,1,2,1,2,2,35.000000
2021-11-11 01:29:15.290,,,,,,,,,,,,,,,,,,,,,,,,,,,,,,,,,,,,,,/muse/elements/blink
2021-11-11 01:29:15.794,,,,,,,,,,,,,,,,,,,,,,,,,,,,,,,,,,,,,,/muse/elements/blink
2021-11-11 01:29:15.992,1.337569612760943,0.9269879645492858,1.06824089823609,1.516453234671617,1.056911237528689,0.331319383943374,0.8245381433426692,0.9025996096054216,0.8302555909205649,0.2039431636926123,0.3165535264056619,1.055912536369271,0.8577548746544533,0.3999199146540635,0.9409351296598509,0.9884578789100346,0.9571668863876895,0.2761577658722265,0.733743855535726,0.7818879931413211,976.3003663003664,800.6227106227107,389.2307692307692,823.992673992674,777.2527472527473,-0.221375,0.213196,0.958496,3.618774,-2.385101,-9.450684,1,2,1,2,2,35.000000
2021-11-11 01:29:16.675,,,,,,,,,,,,,,,,,,,,,,,,,,,,,,,,,,,,,,/muse/elements/blink
2021-11-11 01:29:16.989,1.337569612760943,1.126849065753244,1.06824089823609,1.516453234671617,1.056911237528689,0.6805981368320146,0.8245381433426692,0.9025996096054216,0.8302555909205649,0.2314694355206946,0.3165535264056619,1.055912536369271,0.8577548746544533,0.4907011033518891,0.9409351296598509,0.9884578789100346,0.9571668863876895,0.380220768926829,0.733743855535726,0.7818879931413211,1079.85347985348,830.0366300366301,1628.241758241758,815.934065934066,799.8168498168499,-0.520081,0.055786,0.866150,-0.254211,-6.773987,8.067474,1,2,1,2,2,35.000000
2021-11-11 01:29:17.630,,,,,,,,,,,,,,,,,,,,,,,,,,,,,,,,,,,,,,/muse/elements/blink
2021-11-11 01:29:17.989,1.337569612760943,0.4058665123226868,1.06824089823609,1.516453234671617,1.056911237528689,0.4524943116795418,0.8245381433426692,0.9025996096054216,0.8302555909205649,0.0658175607834673,0.3165535264056619,1.055912536369271,0.8577548746544533,0.5523598442273733,0.9409351296598509,0.9884578789100346,0.9571668863876895,0.4531976131057276,0.733743855535726,0.7818879931413211,1031.904761904762,775.2380952380953,518.974358974359,817.5457875457876,743.8095238095239,-0.254883,0.032593,0.952026,14.101257,-6.474915,-4.015045,1,2,1,2,2,35.000000
2021-11-11 01:29:18.998,1.337569612760943,1.131812984738353,1.06824089823609,1.516453234671617,1.056911237528689,0.2036094940757754,0.8245381433426692,0.9025996096054216,0.8302555909205649,-0.007033069860322505,0.3165535264056619,1.055912536369271,0.8577548746544533,0.3227345006280409,0.9409351296598509,0.9884578789100346,0.9571668863876895,0.1016885661652273,0.733743855535726,0.7818879931413211,0,894.1025641025641,499.2307692307692,742.6007326007326,748.6446886446887,-0.268677,0.127502,0.976196,9.076843,-14.669495,-21.436005,1,2,1,2,2,35.000000
2021-11-11 01:29:19.950,,,,,,,,,,,,,,,,,,,,,,,,,,,,,,,,,,,,,,/muse/elements/blink
2021-11-11 01:29:19.989,1.337569612760943,0.9642384269120848,1.06824089823609,1.516453234671617,1.056911237528689,0.02365901069661161,0.8245381433426692,0.9025996096054216,0.8302555909205649,0.03075801757133076,0.3165535264056619,1.055912536369271,0.8577548746544533,0.4022343674019063,0.9409351296598509,0.9884578789100346,0.9571668863876895,0.05307077008471485,0.733743855535726,0.7818879931413211,967.032967032967,784.9084249084249,267.5457875457876,850.5860805860806,735.7509157509157,0.029358,0.302856,1.076477,-19.103241,9.129181,37.249451,1,2,1,2,2,35.000000
2021-11-11 01:29:20.252,,,,,,,,,,,,,,,,,,,,,,,,,,,,,,,,,,,,,,/muse/elements/blink
2021-11-11 01:29:20.991,1.337569612760943,1.12069849181582,1.06824089823609,1.516453234671617,1.056911237528689,0.5313994983698564,0.8245381433426692,0.9025996096054216,0.8302555909205649,0.3874432828910729,0.3165535264056619,1.055912536369271,0.8577548746544533,0.5396182978082644,0.9409351296598509,0.9884578789100346,0.9571668863876895,0.175722144474133,0.733743855535726,0.7818879931413211,1158.827838827839,775.6410256410256,1094.358974358974,808.2783882783883,641.8681318681319,-0.210754,0.167297,0.972351,1.839294,-4.471130,-0.493469,1,2,1,2,2,35.000000
2021-11-11 01:29:21.988,1.337569612760943,1.178033797224555,1.06824089823609,0.610031341259018,1.056911237528689,0.2977624038620957,0.8245381433426692,0.3545045104078746,0.8302555909205649,0.4501086055318839,0.3165535264056619,0.6914967863602235,0.8577548746544533,0.3467664223271199,0.9409351296598509,0.9346293922166002,0.9571668863876895,-0.05036094867320807,0.733743855535726,0.6720097446891673,887.6556776556777,812.3076923076924,647.5091575091575,665.6410256410256,724.8717948717949,-0.297668,0.101440,0.929382,9.981537,-1.697235,-29.099731,1,1,1,2,1,35.000000
2021-11-11 01:29:22.172,,,,,,,,,,,,,,,,,,,,,,,,,,,,,,,,,,,,,,/muse/elements/blink
2021-11-11 01:29:22.989,1.337569612760943,1.490990754461392,1.06824089823609,0.2403142391989082,1.056911237528689,0.6384279526260783,0.8245381433426692,0.3360120286919815,0.8302555909205649,0.3781382994901744,0.3165535264056619,0.6883217685786019,0.8577548746544533,0.2373729345151802,0.9409351296598509,0.9036902232724588,0.9571668863876895,0.003502115184847159,0.733743855535726,0.6425515396551802,861.0622710622711,777.6556776556777,403.3333333333334,804.2490842490843,782.0879120879121,-0.251648,0.166809,0.947754,12.845154,-14.071350,-36.516724,1,1,1,2,1,35.000000
2021-11-11 01:29:23.622,,,,,,,,,,,,,,,,,,,,,,,,,,,,,,,,,,,,,,/muse/elements/blink
2021-11-11 01:29:23.900,,,,,,,,,,,,,,,,,,,,,,,,,,,,,,,,,,,,,,/muse/elements/blink
2021-11-11 01:29:23.989,1.337569612760943,1.35087388711165,1.06824089823609,0.7712882029984308,1.056911237528689,0.5122475163886155,0.8245381433426692,0.3365467188353549,0.8302555909205649,0.3688070710470097,0.3165535264056619,0.522205248098825,0.8577548746544533,0.2870607094255867,0.9409351296598509,0.7018940499380297,0.9571668863876895,0.1680214585222023,0.733743855535726,0.5283952696222314,708.3516483516484,787.3260073260074,1116.117216117216,826.4102564102565,696.2637362637363,-0.321655,0.099976,0.953491,-12.448883,-5.779572,13.308716,1,1,1,2,1,35.000000
2021-11-11 01:29:24.932,,,,,,,,,,,,,,,,,,,,,,,,,,,,,,,,,,,,,,/muse/elements/jaw_clench
2021-11-11 01:29:24.989,1.337569612760943,0.2835369124939704,1.06824089823609,0.7712882029984308,1.056911237528689,0.1884294086564359,0.8245381433426692,0.3365467188353549,0.8302555909205649,0.4766029063826402,0.3165535264056619,0.522205248098825,0.8577548746544533,0.42527272587898,0.9409351296598509,0.7018940499380297,0.9571668863876895,0.2920482853666565,0.733743855535726,0.5283952696222314,785.3113553113553,794.5787545787546,320.7326007326008,803.040293040293,783.6996336996338,-0.284302,-0.006836,0.959839,1.809387,-4.590759,-3.521576,1,1,1,2,1,35.000000
2021-11-11 01:29:25.963,,,,,,,,,,,,,,,,,,,,,,,,,,,,,,,,,,,,,,/muse/elements/jaw_clench
2021-11-11 01:29:25.989,1.197156233208996,-0.1084160822206741,1.06824089823609,0.3694564699065662,0.8346805023865167,0.1021882782130017,0.8245381433426692,0.2560448802229801,0.7678766684847494,0.4018137699162443,0.3165535264056619,1.055456704892549,0.9577925684060178,0.4006333897767962,0.9409351296598509,0.8628374450935787,0.8001239798285261,0.2915567367230135,0.733743855535726,0.8385657266475334,676.5201465201466,778.4615384615385,304.2124542124542,799.4139194139194,682.1611721611722,-0.275208,-0.014465,0.964172,4.478607,-1.158905,3.013153,1,1,1,2,1,35.000000
2021-11-11 01:29:26.246,,,,,,,,,,,,,,,,,,,,,,,,,,,,,,,,,,,,,,/muse/elements/jaw_clench
2021-11-11 01:29:26.662,,,,,,,,,,,,,,,,,,,,,,,,,,,,,,,,,,,,,,/muse/elements/blink
2021-11-11 01:29:26.996,1.15878397478976,0.8994457262964682,1.06824089823609,0.4649539057280093,0.9679906443443195,1.058970459656195,0.8245381433426692,0.5874606111450901,1.190082898245943,1.14521666992848,0.3165535264056619,1.028377779505617,1.017477334709945,0.7296779554281178,0.9409351296598509,0.7173826580170001,0.9028968950250579,0.4948606242447353,0.733743855535726,0.8048638426694401,801.4285714285714,779.6703296703297,1041.978021978022,809.4871794871796,606.007326007326,-0.504456,0.142578,0.894653,11.013336,5.772095,-1.487885,1,1,1,4,1,35.000000
2021-11-11 01:29:27.989,1.105496374468327,1.381968659687357,1.06824089823609,0.6086949896194037,1.091972252613158,1.411889772875024,0.8245381433426692,0.7462906534738929,1.190082898245943,1.068075192026555,0.3165535264056619,0.6223314720355557,1.082124345752315,0.9247967529178331,0.9409351296598509,0.6842621292529052,1.00444090158974,0.6495179866512854,0.733743855535726,0.8575436097499363,519.7802197802198,1623.809523809524,1623.809523809524,587.4725274725275,720.0366300366301,-0.371094,0.307068,0.785522,1.256104,-18.946228,-37.062531,1,1,1,4,1,35.000000
2021-11-11 01:29:28.084,,,,,,,,,,,,,,,,,,,,,,,,,,,,,,,,,,,,,,/muse/elements/blink
2021-11-11 01:29:28.587,,,,,,,,,,,,,,,,,,,,,,,,,,,,,,,,,,,,,,/muse/elements/blink
2021-11-11 01:29:28.866,,,,,,,,,,,,,,,,,,,,,,,,,,,,,,,,,,,,,,/muse/elements/blink
2021-11-11 01:29:28.988,1.105496374468327,1.444323453833373,1.06824089823609,0.6086949896194037,1.091972252613158,1.466895223604163,0.8245381433426692,0.7462906534738929,1.190082898245943,1.034967240281559,0.3165535264056619,0.6223314720355557,1.082124345752315,0.9861027422125224,0.9409351296598509,0.6842621292529052,1.00444090158974,0.7076342420066617,0.733743855535726,0.8575436097499363,577.8021978021978,461.3553113553114,0,728.0952380952381,793.7728937728938,-0.193298,0.192932,0.946045,-14.475098,-35.686798,19.379883,1,1,4,4,1,35.000000
2021-11-11 01:29:29.989,1.105496374468327,1.444323453833373,1.06824089823609,0.6086949896194037,1.091972252613158,1.466895223604163,0.8245381433426692,0.7462906534738929,1.190082898245943,1.034967240281559,0.3165535264056619,0.6223314720355557,1.082124345752315,0.9861027422125224,0.9409351296598509,0.6842621292529052,1.00444090158974,0.7076342420066617,0.733743855535726,0.8575436097499363,673.2967032967033,790.952380952381,695.4578754578755,786.1172161172161,673.6996336996338,-0.151001,0.209656,0.958313,-1.861725,5.390778,24.329529,1,2,4,4,2,35.000000
2021-11-11 01:29:30.412,,,,,,,,,,,,,,,,,,,,,,,,,,,,,,,,,,,,,,/muse/elements/blink
2021-11-11 01:29:30.989,1.105496374468327,1.444323453833373,1.06824089823609,0.6086949896194037,1.091972252613158,1.466895223604163,0.8245381433426692,0.7462906534738929,1.190082898245943,1.034967240281559,0.3165535264056619,0.6223314720355557,1.082124345752315,0.9861027422125224,0.9409351296598509,0.6842621292529052,1.00444090158974,0.7076342420066617,0.733743855535726,0.8575436097499363,501.6483516483516,896.9230769230769,724.8717948717949,759.5238095238095,695.4578754578755,-0.225464,0.174255,0.954468,-5.824432,-35.193329,-2.751465,1,2,2,4,2,35.000000
2021-11-11 01:29:31.988,1.105496374468327,1.444323453833373,1.06824089823609,0.6086949896194037,1.091972252613158,1.466895223604163,0.8245381433426692,0.7462906534738929,1.190082898245943,1.034967240281559,0.3165535264056619,0.6223314720355557,1.082124345752315,0.9861027422125224,0.9409351296598509,0.6842621292529052,1.00444090158974,0.7076342420066617,0.733743855535726,0.8575436097499363,632.6007326007326,967.4358974358975,5.641025641025641,824.7985347985348,709.5604395604396,0.005493,0.130005,0.862366,-3.671112,13.390961,-1.839294,1,2,1,4,2,35.000000
2021-11-11 01:29:32.145,,,,,,,,,,,,,,,,,,,,,,,,,,,,,,,,,,,,,,/muse/elements/blink
2021-11-11 01:29:32.838,,,,,,,,,,,,,,,,,,,,,,,,,,,,,,,,,,,,,,/muse/elements/blink
2021-11-11 01:29:32.989,1.105496374468327,1.444323453833373,1.06824089823609,0.6086949896194037,1.091972252613158,1.466895223604163,0.8245381433426692,0.7462906534738929,1.190082898245943,1.034967240281559,0.3165535264056619,0.6223314720355557,1.082124345752315,0.9861027422125224,0.9409351296598509,0.6842621292529052,1.00444090158974,0.7076342420066617,0.733743855535726,0.8575436097499363,994.4322344322345,1011.758241758242,0,825.2014652014652,842.1245421245421,0.536560,0.102356,0.936340,-6.175842,-78.588715,29.832458,1,2,1,4,2,35.000000
2021-11-11 01:29:33.042,,,,,,,,,,,,,,,,,,,,,,,,,,,,,,,,,,,,,,/muse/elements/blink
2021-11-11 01:29:33.367,,,,,,,,,,,,,,,,,,,,,,,,,,,,,,,,,,,,,,/muse/elements/blink
2021-11-11 01:29:33.988,1.105496374468327,1.444323453833373,1.06824089823609,0.6086949896194037,1.091972252613158,1.466895223604163,0.8245381433426692,0.7462906534738929,1.190082898245943,1.034967240281559,0.3165535264056619,0.6223314720355557,1.082124345752315,0.9861027422125224,0.9409351296598509,0.6842621292529052,1.00444090158974,0.7076342420066617,0.733743855535726,0.8575436097499363,764.3589743589744,958.1684981684982,263.919413919414,801.8315018315019,788.5347985347986,-0.154724,0.202332,0.976074,9.398346,11.491852,-2.153320,1,2,1,4,2,35.000000
2021-11-11 01:29:34.497,,,,,,,,,,,,,,,,,,,,,,,,,,,,,,,,,,,,,,/muse/elements/blink
2021-11-11 01:29:34.988,1.105496374468327,1.444323453833373,1.06824089823609,0.6086949896194037,1.091972252613158,1.466895223604163,0.8245381433426692,0.7462906534738929,1.190082898245943,1.034967240281559,0.3165535264056619,0.6223314720355557,1.082124345752315,0.9861027422125224,0.9409351296598509,0.6842621292529052,1.00444090158974,0.7076342420066617,0.733743855535726,0.8575436097499363,942.8571428571429,832.0512820512821,1415.897435897436,788.9377289377289,635.4212454212454,-0.267273,0.300964,0.962280,17.256470,6.041260,-43.372955,1,2,1,4,2,35.000000
2021-11-11 01:29:35.288,,,,,,,,,,,,,,,,,,,,,,,,,,,,,,,,,,,,,,/muse/elements/blink
2021-11-11 01:29:35.996,1.105496374468327,1.448798316994599,1.06824089823609,0.6086949896194037,1.091972252613158,0.6977554724787589,0.8245381433426692,0.7462906534738929,1.190082898245943,0.7687309621534608,0.3165535264056619,0.6223314720355557,1.082124345752315,0.8440305441337034,0.9409351296598509,0.6842621292529052,1.00444090158974,0.6587817514508986,0.733743855535726,0.8575436097499363,863.4798534798535,772.014652014652,135.3846153846154,832.4542124542124,734.5421245421246,-0.268860,0.342712,0.914246,2.826233,-7.596436,-5.001984,1,2,1,2,2,40.000000
2021-11-11 01:29:36.996,1.105496374468327,1.177757721267676,1.06824089823609,0.6086949896194037,1.091972252613158,0.3623588733989261,0.8245381433426692,0.7462906534738929,1.190082898245943,0.654092414720255,0.3165535264056619,0.6223314720355557,1.082124345752315,0.6555919942428173,0.9409351296598509,0.6842621292529052,1.00444090158974,0.4189641219481291,0.733743855535726,0.8575436097499363,971.4652014652015,751.4652014652015,0,826.4102564102565,1188.644688644689,-0.337646,0.307068,0.934875,2.519684,-3.372040,-0.343933,1,2,1,4,2,40.000000
2021-11-11 01:29:37.716,,,,,,,,,,,,,,,,,,,,,,,,,,,,,,,,,,,,,,/muse/elements/blink
2021-11-11 01:29:37.988,1.105496374468327,0.9347210110050393,1.06824089823609,1.188577022521066,1.091972252613158,0.1662128268619384,0.8245381433426692,1.031925423598506,1.190082898245943,0.5118035373454245,0.3165535264056619,1.218984484410314,1.082124345752315,0.550303478514506,0.9409351296598509,1.065536181227889,1.00444090158974,0.4058775762932598,0.733743855535726,1.030450286070117,841.3186813186813,1624.212454212454,981.1355311355312,801.4285714285714,647.1062271062272,-0.267761,0.296692,0.912964,5.428162,2.654266,-6.362762,1,1,1,4,1,40.000000
2021-11-11 01:29:38.988,1.105496374468327,0.5854856251678445,1.06824089823609,1.369597866647284,1.091972252613158,0.33799633813014,0.8245381433426692,1.051131073124015,1.190082898245943,0.4551569291404353,0.3165535264056619,1.224506299997157,1.082124345752315,0.5655636057418774,0.9409351296598509,1.036762435977499,1.00444090158974,0.524091553965481,0.733743855535726,1.037117839209153,834.4688644688645,502.8571428571429,0,783.2967032967033,1014.981684981685,0.298096,0.283630,0.953552,7.536621,-57.788239,-0.740204,1,1,1,4,1,40.000000
2021-11-11 01:29:39.050,,,,,,,,,,,,,,,,,,,,,,,,,,,,,,,,,,,,,,/muse/elements/blink
2021-11-11 01:29:39.988,1.105496374468327,0.5592715111504228,1.06824089823609,1.544624899742165,1.091972252613158,0.4098096730072944,0.8245381433426692,1.14437445945704,1.190082898245943,0.4116984727216152,0.3165535264056619,1.208226783890513,1.082124345752315,0.5808276036658793,0.9409351296598509,0.9817501930975309,1.00444090158974,0.5421619324465556,0.733743855535726,1.066718433352075,1022.234432234432,774.4322344322345,690.2197802197802,797.8021978021978,772.4175824175825,0.080078,0.355103,0.948669,2.168274,-4.441223,1.577606,1,1,1,4,1,40.000000
2021-11-11 01:29:40.454,,,,,,,,,,,,,,,,,,,,,,,,,,,,,,,,,,,,,,/muse/elements/blink
2021-11-11 01:29:40.992,1.105496374468327,0.5592715111504228,1.06824089823609,1.544624899742165,1.091972252613158,0.4098096730072944,0.8245381433426692,1.14437445945704,1.190082898245943,0.4116984727216152,0.3165535264056619,1.208226783890513,1.082124345752315,0.5808276036658793,0.9409351296598509,0.9817501930975309,1.00444090158974,0.5421619324465556,0.733743855535726,1.066718433352075,914.2490842490843,1349.010989010989,22.16117216117216,799.8168498168499,680.5494505494506,-0.289551,0.292969,0.909790,-9.151611,43.716888,-7.215118,1,2,1,4,2,40.000000
2021-11-11 01:29:41.300,,,,,,,,,,,,,,,,,,,,,,,,,,,,,,,,,,,,,,/muse/elements/blink
2021-11-11 01:29:41.806,,,,,,,,,,,,,,,,,,,,,,,,,,,,,,,,,,,,,,/muse/elements/blink
2021-11-11 01:29:41.988,1.105496374468327,0.5592715111504228,1.06824089823609,1.544624899742165,1.091972252613158,0.4098096730072944,0.8245381433426692,1.14437445945704,1.190082898245943,0.4116984727216152,0.3165535264056619,1.208226783890513,1.082124345752315,0.5808276036658793,0.9409351296598509,0.9817501930975309,1.00444090158974,0.5421619324465556,0.733743855535726,1.066718433352075,1090.732600732601,718.4249084249085,1623.809523809524,779.6703296703297,747.032967032967,-0.545410,0.204041,0.846313,7.581482,-8.246918,-1.540222,1,2,1,4,2,40.000000
2021-11-11 01:29:41.993,,,,,,,,,,,,,,,,,,,,,,,,,,,,,,,,,,,,,,/muse/elements/blink
2021-11-11 01:29:42.988,1.105496374468327,0.5592715111504228,1.06824089823609,1.544624899742165,1.091972252613158,0.4098096730072944,0.8245381433426692,1.14437445945704,1.190082898245943,0.4116984727216152,0.3165535264056619,1.208226783890513,1.082124345752315,0.5808276036658793,0.9409351296598509,0.9817501930975309,1.00444090158974,0.5421619324465556,0.733743855535726,1.066718433352075,943.6630036630037,742.6007326007326,24.17582417582418,755.0915750915751,790.952380952381,-0.421570,0.150818,0.895081,4.844971,-8.179626,-1.390686,1,2,4,4,2,40.000000
2021-11-11 01:29:43.648,,,,,,,,,,,,,,,,,,,,,,,,,,,,,,,,,,,,,,/muse/elements/blink
2021-11-11 01:29:43.988,1.105496374468327,0.5592715111504228,1.06824089823609,1.544624899742165,1.091972252613158,0.4098096730072944,0.8245381433426692,1.14437445945704,1.190082898245943,0.4116984727216152,0.3165535264056619,1.208226783890513,1.082124345752315,0.5808276036658793,0.9409351296598509,0.9817501930975309,1.00444090158974,0.5421619324465556,0.733743855535726,1.066718433352075,994.0293040293041,779.6703296703297,227.6556776556777,851.3919413919414,641.4652014652015,-0.378784,0.120972,0.934692,3.416901,-7.319794,-2.818756,1,2,1,2,2,40.000000
2021-11-11 01:29:44.527,,,,,,,,,,,,,,,,,,,,,,,,,,,,,,,,,,,,,,/muse/elements/blink
2021-11-11 01:29:44.989,1.105496374468327,1.691486910757178,1.06824089823609,1.544624899742165,1.091972252613158,0.8809557208242178,0.8245381433426692,1.14437445945704,1.190082898245943,0.6362276594308386,0.3165535264056619,1.208226783890513,1.082124345752315,1.034343164158033,0.9409351296598509,0.9817501930975309,1.00444090158974,1.000801710880488,0.733743855535726,1.066718433352075,994.8351648351648,781.6849816849817,705.934065934066,865.0915750915751,769.1941391941392,-0.331421,0.128845,0.925659,6.332855,-11.185303,1.121521,1,2,1,2,2,40.000000
2021-11-11 01:29:45.921,,,,,,,,,,,,,,,,,,,,,,,,,,,,,,,,,,,,,,/muse/elements/blink
2021-11-11 01:29:45.988,1.105496374468327,1.690930628667743,1.06824089823609,1.544624899742165,1.091972252613158,0.876960252690611,0.8245381433426692,1.14437445945704,1.190082898245943,0.529077341676265,0.3165535264056619,1.208226783890513,1.082124345752315,0.958389263371309,0.9409351296598509,0.9817501930975309,1.00444090158974,0.7823016744768198,0.733743855535726,1.066718433352075,944.0659340659341,702.3076923076924,0,862.2710622710623,821.5750915750916,-0.390320,0.224121,0.826233,-33.339081,83.231812,159.682159,1,2,1,2,2,40.000000
2021-11-11 01:29:46.665,,,,,,,,,,,,,,,,,,,,,,,,,,,,,,,,,,,,,,/muse/elements/blink
2021-11-11 01:29:46.988,1.105496374468327,0.3410969402931183,1.06824089823609,1.544624899742165,1.091972252613158,0.1311034970918708,0.8245381433426692,1.14437445945704,1.190082898245943,0.1521875594767039,0.3165535264056619,1.208226783890513,1.082124345752315,0.8441144827685505,0.9409351296598509,0.9817501930975309,1.00444090158974,0.7286181299281366,0.733743855535726,1.066718433352075,792.967032967033,666.0439560439561,651.1355311355312,756.7032967032967,617.6923076923077,-0.375061,0.206543,0.803772,-10.699310,-53.070374,18.736877,1,2,1,4,2,40.000000
2021-11-11 01:29:47.060,,,,,,,,,,,,,,,,,,,,,,,,,,,,,,,,,,,,,,/muse/elements/blink
2021-11-11 01:29:47.984,,,,,,,,,,,,,,,,,,,,,,,,,,,,,,,,,,,,,,/muse/elements/blink
2021-11-11 01:29:47.998,1.105496374468327,0.3410969402931183,1.06824089823609,1.544624899742165,1.091972252613158,0.1311034970918708,0.8245381433426692,1.14437445945704,1.190082898245943,0.1521875594767039,0.3165535264056619,1.208226783890513,1.082124345752315,0.8441144827685505,0.9409351296598509,0.9817501930975309,1.00444090158974,0.7286181299281366,0.733743855535726,1.066718433352075,858.6446886446887,606.007326007326,1020.21978021978,633.4065934065934,781.6849816849817,-0.263428,0.260620,1.002869,-43.305664,-53.975067,-6.377716,1,2,4,4,2,40.000000
2021-11-11 01:29:48.172,,,,,,,,,,,,,,,,,,,,,,,,,,,,,,,,,,,,,,/muse/elements/blink
2021-11-11 01:29:48.514,,,,,,,,,,,,,,,,,,,,,,,,,,,,,,,,,,,,,,/muse/elements/blink
2021-11-11 01:29:48.976,,,,,,,,,,,,,,,,,,,,,,,,,,,,,,,,,,,,,,/muse/elements/blink
2021-11-11 01:29:48.987,1.105496374468327,0.3410969402931183,1.06824089823609,1.544624899742165,1.091972252613158,0.1311034970918708,0.8245381433426692,1.14437445945704,1.190082898245943,0.1521875594767039,0.3165535264056619,1.208226783890513,1.082124345752315,0.8441144827685505,0.9409351296598509,0.9817501930975309,1.00444090158974,0.7286181299281366,0.733743855535726,1.066718433352075,955.7509157509157,735.7509157509157,955.7509157509157,822.3809523809524,794.5787545787546,-0.311523,0.375427,0.868530,11.491852,2.429962,-3.087921,1,2,2,4,2,40.000000
2021-11-11 01:29:49.987,1.105496374468327,0.3410969402931183,1.06824089823609,1.544624899742165,1.091972252613158,0.1311034970918708,0.8245381433426692,1.14437445945704,1.190082898245943,0.1521875594767039,0.3165535264056619,1.208226783890513,1.082124345752315,0.8441144827685505,0.9409351296598509,0.9817501930975309,1.00444090158974,0.7286181299281366,0.733743855535726,1.066718433352075,908.2051282051282,761.5384615384615,551.2087912087912,850.989010989011,755.4945054945055,-0.261169,0.283081,0.915710,3.529053,-5.009460,-5.570221,1,2,1,4,2,40.000000
2021-11-11 01:29:50.016,,,,,,,,,,,,,,,,,,,,,,,,,,,,,,,,,,,,,,/muse/elements/blink
2021-11-11 01:29:50.991,1.105496374468327,0.9972220411867557,1.06824089823609,1.544624899742165,1.091972252613158,0.653863804853557,0.8245381433426692,1.14437445945704,1.190082898245943,0.6002087630220999,0.3165535264056619,1.208226783890513,1.082124345752315,0.7616354257982622,0.9409351296598509,0.9817501930975309,1.00444090158974,0.7588205141353577,0.733743855535726,1.066718433352075,1016.996336996337,783.2967032967033,864.2857142857143,810.2930402930403,689.0109890109891,-0.275574,0.270630,0.926575,3.985138,-6.886139,-2.960815,1,2,1,2,2,40.000000
2021-11-11 01:29:51.987,1.292431031188355,1.146705836924088,1.06824089823609,1.343524090898651,1.231038303767341,1.054949599253418,0.8245381433426692,1.114260114155616,1.051496777852283,1.355338118178408,0.3165535264056619,0.6756668416203599,1.050258986668982,0.9989607797604271,0.9409351296598509,0.8983051112132002,1.008544342642839,0.8329321793492891,0.733743855535726,0.9782537825396347,905.7875457875458,797.3992673992674,734.5421245421246,780.8791208791209,782.4908424908425,-0.293884,0.237793,0.927673,2.773895,-2.691650,-4.673004,1,1,1,4,1,40.000000
2021-11-11 01:29:52.448,,,,,,,,,,,,,,,,,,,,,,,,,,,,,,,,,,,,,,/muse/elements/blink
2021-11-11 01:29:52.987,1.520383147827161,1.631105963089918,1.06824089823609,1.443515641502921,1.361112296263168,1.149838128159545,0.8245381433426692,1.182634984082297,1.045655439729972,1.200574220997321,0.3165535264056619,0.6542014211714349,1.094886646860621,0.846872534219587,0.9409351296598509,0.9393300152423828,1.14168508731878,0.8995562715802871,0.733743855535726,0.9923300056556734,886.4468864468864,799.8168498168499,215.970695970696,821.1721611721612,707.1428571428571,-0.766357,0.302185,0.576538,-5.301056,-34.550323,4.800110,1,1,1,4,1,40.000000
2021-11-11 01:29:53.380,,,,,,,,,,,,,,,,,,,,,,,,,,,,,,,,,,,,,,/muse/elements/blink
2021-11-11 01:29:53.751,,,,,,,,,,,,,,,,,,,,,,,,,,,,,,,,,,,,,,/muse/elements/blink
2021-11-11 01:29:53.987,1.520383147827161,1.70047649906455,1.06824089823609,0.9568326689524769,1.361112296263168,1.133800425367157,0.8245381433426692,0.6048522190114143,1.045655439729972,0.8541114202882195,0.3165535264056619,0.6101762455115806,1.094886646860621,0.7119781454046229,0.9409351296598509,1.04484917199121,1.14168508731878,0.97840741313897,0.733743855535726,0.9946151012244185,806.6666666666667,782.4908424908425,255.8608058608059,823.992673992674,831.2454212454213,-0.584351,0.312378,0.782288,5.413208,3.858032,-2.153320,1,1,1,4,1,40.000000
2021-11-11 01:29:54.091,,,,,,,,,,,,,,,,,,,,,,,,,,,,,,,,,,,,,,/muse/elements/blink
2021-11-11 01:29:54.458,,,,,,,,,,,,,,,,,,,,,,,,,,,,,,,,,,,,,,/muse/elements/blink
2021-11-11 01:29:54.995,1.520383147827161,0.8357520259081032,1.06824089823609,0.9568326689524769,1.361112296263168,0.4857420345754692,0.8245381433426692,0.6048522190114143,1.045655439729972,0.5270648493992882,0.3165535264056619,0.6101762455115806,1.094886646860621,0.5809185994812579,0.9409351296598509,1.04484917199121,1.14168508731878,0.4316478303748293,0.733743855535726,0.9946151012244185,0,631.7948717948718,1623.809523809524,769.1941391941392,814.3223443223443,-0.767578,0.222961,0.647522,29.368896,45.100098,-38.370972,1,2,1,4,2,40.000000
2021-11-11 01:29:55.075,,,,,,,,,,,,,,,,,,,,,,,,,,,,,,,,,,,,,,/muse/elements/blink
2021-11-11 01:29:55.580,,,,,,,,,,,,,,,,,,,,,,,,,,,,,,,,,,,,,,/muse/elements/blink
2021-11-11 01:29:55.987,1.520383147827161,0.8503011903030767,1.06824089823609,0.9568326689524769,1.361112296263168,0.5009358346179835,0.8245381433426692,0.6048522190114143,1.045655439729972,0.5270648493992882,0.3165535264056619,0.6101762455115806,1.094886646860621,0.7829443627653814,0.9409351296598509,1.04484917199121,1.14168508731878,0.5617222182470708,0.733743855535726,0.9946151012244185,1561.355311355311,820.7692307692308,0,673.2967032967033,682.5641025641025,-0.627380,0.326233,0.677979,1.196289,-16.897583,26.654816,1,4,1,4,2,40.000000
2021-11-11 01:29:56.991,1.520383147827161,0.8503011903030767,1.06824089823609,0.9568326689524769,1.361112296263168,0.5009358346179835,0.8245381433426692,0.6048522190114143,1.045655439729972,0.5270648493992882,0.3165535264056619,0.6101762455115806,1.094886646860621,0.7829443627653814,0.9409351296598509,1.04484917199121,1.14168508731878,0.5617222182470708,0.733743855535726,0.9946151012244185,1060.512820512821,796.996336996337,0,810.6959706959707,738.5714285714286,-0.593750,0.475098,0.808594,-27.933350,16.845245,27.036133,1,2,1,1,2,40.000000
2021-11-11 01:29:57.139,,,,,,,,,,,,,,,,,,,,,,,,,,,,,,,,,,,,,,/muse/elements/blink
2021-11-11 01:29:57.648,,,,,,,,,,,,,,,,,,,,,,,,,,,,,,,,,,,,,,/muse/elements/blink
2021-11-11 01:29:57.988,1.520383147827161,1.926421954182767,-0.6478647748790464,0.9568326689524769,1.361112296263168,0.8686501360499146,-0.5399679532848596,0.6048522190114143,1.045655439729972,0.6058875878471092,-0.1239921518082938,0.6101762455115806,1.094886646860621,0.8142358825698819,-0.03178365369687874,1.04484917199121,1.14168508731878,1.024903896070987,-0.2207931314066023,0.9946151012244185,788.9377289377289,758.7179487179487,0,848.974358974359,873.956043956044,-0.304565,-0.061096,0.957153,-2.788849,-5.944061,-30.826874,1,2,1,1,2,40.000000
2021-11-11 01:29:58.453,,,,,,,,,,,,,,,,,,,,,,,,,,,,,,,,,,,,,,/muse/elements/blink
2021-11-11 01:29:58.966,,,,,,,,,,,,,,,,,,,,,,,,,,,,,,,,,,,,,,/muse/elements/blink
2021-11-11 01:29:58.988,1.520383147827161,1.741988115311524,-0.9716172097536123,0.9568326689524769,1.361112296263168,0.6026136902781034,-0.8597394965967059,0.6048522190114143,1.045655439729972,0.6301650881622464,-0.1239921518082938,0.6101762455115806,1.094886646860621,0.5918814917823561,-0.3515712357212007,1.04484917199121,1.14168508731878,0.8298516640481726,-0.5407004055430028,0.9946151012244185,906.5934065934066,753.4798534798535,0,787.3260073260074,572.1611721611722,-0.339294,0.142700,0.969238,4.037476,-1.443024,-0.919647,1,2,1,1,2,40.000000
2021-11-11 01:29:59.998,1.520383147827161,0.7218169384477798,-0.2396727035827851,0.9239706136428467,1.361112296263168,0.1278857466201897,-1.226750432413143,0.2768969711025982,1.045655439729972,0.337676475719743,-0.01896806005869979,0.6674130297871865,1.094886646860621,0.2663238331584622,-1.025362282006903,1.155623026976863,1.14168508731878,0.5337273748620103,-1.435496181171976,0.8387091909287279,969.047619047619,781.2820512820513,13.2967032967033,878.3882783882784,815.1282051282052,-0.345947,0.100647,0.952637,19.589233,11.312408,-20.561218,1,2,1,1,2,40.000000
2021-11-11 01:30:00.167,,,,,,,,,,,,,,,,,,,,,,,,,,,,,,,,,,,,,,/muse/elements/jaw_clench
2021-11-11 01:30:00.369,,,,,,,,,,,,,,,,,,,,,,,,,,,,,,,,,,,,,,/muse/elements/blink
2021-11-11 01:30:00.987,1.520383147827161,1.163977559874271,0.1519797813583827,1.114023955687876,1.361112296263168,0.4354245585251543,-0.8356902279282773,0.3218080262805296,1.045655439729972,0.4782550936767808,-0.01896806005869979,0.7720835163970137,1.094886646860621,0.5091581824407615,-0.619138353204837,1.197435674873834,1.14168508731878,0.5335629769602358,-0.9853069602696741,0.8840102136825466,987.985347985348,804.2490842490843,0,788.5347985347986,830.4395604395604,-0.273254,0.138977,0.952209,1.390686,-3.633728,5.271149,1,1,1,1,1,40.000000
2021-11-11 01:30:01.155,,,,,,,,,,,,,,,,,,,,,,,,,,,,,,,,,,,,,,/muse/elements/jaw_clench
2021-11-11 01:30:01.577,,,,,,,,,,,,,,,,,,,,,,,,,,,,,,,,,,,,,,/muse/elements/blink
2021-11-11 01:30:01.988,1.520383147827161,1.407088692240857,0.353832184550172,1.175082768910688,1.361112296263168,0.5768483556369697,-0.6141005397637354,0.3284698091737228,1.045655439729972,0.7292385631192926,-0.01896806005869979,0.7720835163970137,1.094886646860621,0.8468843548641437,-0.4509373547095678,1.232907632397611,1.14168508731878,0.8626703678820979,-0.8127999105262753,0.9178204629944223,916.2637362637363,788.5347985347986,671.6849816849817,823.1868131868132,677.3260073260074,-0.211670,0.156372,0.957397,5.734711,-13.047028,17.106934,1,1,1,1,1,40.000000
2021-11-11 01:30:02.991,,,,,,,,,,,,,,,,,,,,,,,,,,,,,,,,,,,,,,/muse/elements/jaw_clench
2021-11-11 01:30:03.002,1.520383147827161,1.388394353841893,0.353832184550172,1.341593565813285,1.361112296263168,0.7881447768253266,-0.6141005397637354,0.9807451132453944,1.045655439729972,1.051739200486407,-0.01896806005869979,1.123370570642876,1.094886646860621,0.9286098178952599,-0.4509373547095678,1.201614848238469,1.14168508731878,0.9577291432231249,-0.8127999105262753,0.9550701774670534,1037.948717948718,792.5641025641025,890.8791208791209,796.1904761904763,728.0952380952381,-0.210938,0.284668,0.940979,-2.766418,-5.203857,5.338440,1,1,1,4,1,40.000000
2021-11-11 01:30:03.992,1.520383147827161,1.431551990882184,0.353832184550172,1.341593565813285,1.361112296263168,1.027008791413418,-0.6141005397637354,0.9807451132453944,1.045655439729972,1.696516397273783,-0.01896806005869979,1.123370570642876,1.094886646860621,0.8166979368391263,-0.4509373547095678,1.201614848238469,1.14168508731878,0.6181898771854043,-0.8127999105262753,0.9550701774670534,1034.725274725275,908.6080586080586,0,870.7326007326008,687.3992673992674,-0.473389,0.133972,0.835815,7.088013,16.815338,33.391418,1,1,1,4,1,40.000000
2021-11-11 01:30:04.994,1.520383147827161,1.414071067349076,0.353832184550172,1.327343914598641,1.361112296263168,0.8898068424629137,-0.6141005397637354,0.998321704595567,1.045655439729972,1.696516397273783,-0.01896806005869979,1.098668582560829,1.094886646860621,0.658864446466753,-0.4509373547095678,1.195063312812632,1.14168508731878,0.4294205359329186,-0.8127999105262753,0.9469202555044922,942.0512820512821,780.4761904761905,0,680.952380952381,678.5347985347986,-0.376892,0.469177,0.863159,8.755341,8.516083,-6.661835,1,1,1,1,1,40.000000
2021-11-11 01:30:05.244,,,,,,,,,,,,,,,,,,,,,,,,,,,,,,,,,,,,,,/muse/elements/blink
2021-11-11 01:30:05.424,,,,,,,,,,,,,,,,,,,,,,,,,,,,,,,,,,,,,,/muse/elements/jaw_clench
2021-11-11 01:30:05.996,1.520383147827161,1.321099728115631,0.353832184550172,1.327343914598641,1.361112296263168,0.7828971611533896,-0.6141005397637354,0.998321704595567,1.045655439729972,1.022762072896249,-0.01896806005869979,1.098668582560829,1.094886646860621,0.6184207755144613,-0.4509373547095678,1.195063312812632,1.14168508731878,0.4470156616660854,-0.8127999105262753,0.9469202555044922,1030.29304029304,778.8644688644689,46.33699633699634,922.3076923076924,824.3956043956044,-0.569458,0.071411,0.838440,2.071075,-34.483032,13.518066,1,2,1,1,2,40.000000
2021-11-11 01:30:06.052,,,,,,,,,,,,,,,,,,,,,,,,,,,,,,,,,,,,,,/muse/elements/blink
2021-11-11 01:30:06.564,,,,,,,,,,,,,,,,,,,,,,,,,,,,,,,,,,,,,,/muse/elements/blink
2021-11-11 01:30:06.898,,,,,,,,,,,,,,,,,,,,,,,,,,,,,,,,,,,,,,/muse/elements/jaw_clench
2021-11-11 01:30:06.998,1.520383147827161,1.179073472971671,0.353832184550172,1.327343914598641,1.361112296263168,1.05998463352414,-0.6141005397637354,0.998321704595567,1.045655439729972,1.302019890389544,-0.01896806005869979,1.098668582560829,1.094886646860621,0.6127431251128045,-0.4509373547095678,1.195063312812632,1.14168508731878,0.3609067650864395,-0.8127999105262753,0.9469202555044922,775.2380952380953,776.0439560439561,1545.641025641026,807.0695970695971,689.4139194139194,0.090088,0.462585,0.906128,-0.463562,10.175934,3.259888,1,2,1,1,2,40.000000
2021-11-11 01:30:07.702,,,,,,,,,,,,,,,,,,,,,,,,,,,,,,,,,,,,,,/muse/elements/jaw_clench
2021-11-11 01:30:07.999,1.547621085271952,1.344304777734862,0.353832184550172,1.147181721518978,0.5666441191715208,1.207352688515102,-0.6141005397637354,0.337631639776737,0.6361840994541813,1.302019890389544,-0.01896806005869979,0.5357192613930396,0.739908536292325,0.809376608172508,-0.4509373547095678,0.6347816892690266,0.9716041948819335,0.3833511806378689,-0.8127999105262753,0.9834098445437419,1226.117216117216,1623.809523809524,599.9633699633699,1346.996336996337,840.9157509157509,-0.357056,0.173279,0.896667,-4.306641,4.972076,-7.140350,1,1,1,4,1,40.000000
2021-11-11 01:30:08.026,,,,,,,,,,,,,,,,,,,,,,,,,,,,,,,,,,,,,,/muse/elements/blink
2021-11-11 01:30:09.001,1.547621085271952,0.493902205579931,0.353832184550172,1.147181721518978,0.5666441191715208,-0.1355383621213239,-0.6141005397637354,0.337631639776737,0.6361840994541813,0.3940619481236085,-0.01896806005869979,0.5357192613930396,0.739908536292325,0.8426590376831139,-0.4509373547095678,0.6347816892690266,0.9716041948819335,0.3760493497156122,-0.8127999105262753,0.9834098445437419,554.8351648351648,760.3296703296703,74.94505494505495,833.6630036630037,727.2893772893773,-0.309937,0.233948,0.915344,12.329254,40.957947,-20.060272,1,1,1,1,1,40.000000
2021-11-11 01:30:09.436,,,,,,,,,,,,,,,,,,,,,,,,,,,,,,,,,,,,,,/muse/elements/blink
2021-11-11 01:30:10.003,1.547621085271952,0.3042052996196927,0.353832184550172,1.182719883590128,0.5666441191715208,-0.1885987944433161,-0.6141005397637354,0.2157343048797764,0.6361840994541813,0.3689881035493357,-0.01896806005869979,0.4227516274028945,0.739908536292325,0.8272037527291616,-0.4509373547095678,0.6089298894043382,0.9716041948819335,0.4015190031350763,-0.8127999105262753,0.9784690323352374,531.8681318681319,674.1025641025641,0,782.0879120879121,719.6336996336996,-0.231567,0.208496,0.950012,7.521667,-4.194489,-0.463562,1,1,1,4,1,40.000000
2021-11-11 01:30:10.468,,,,,,,,,,,,,,,,,,,,,,,,,,,,,,,,,,,,,,/muse/elements/blink
2021-11-11 01:30:10.931,,,,,,,,,,,,,,,,,,,,,,,,,,,,,,,,,,,,,,/muse/elements/blink
2021-11-11 01:30:11.012,1.547621085271952,0.3042052996196927,0.353832184550172,1.182719883590128,0.5666441191715208,-0.1885987944433161,-0.6141005397637354,0.2157343048797764,0.6361840994541813,0.3689881035493357,-0.01896806005869979,0.4227516274028945,0.739908536292325,0.8272037527291616,-0.4509373547095678,0.6089298894043382,0.9716041948819335,0.4015190031350763,-0.8127999105262753,0.9784690323352374,1047.216117216117,1624.212454212454,0,974.6886446886447,722.0512820512821,0.262512,0.033142,0.944885,-1.226196,-68.128662,-5.876770,1,2,1,4,2,40.000000
2021-11-11 01:30:12.012,1.547621085271952,0.3042052996196927,0.353832184550172,1.182719883590128,0.5666441191715208,-0.1885987944433161,-0.6141005397637354,0.2157343048797764,0.6361840994541813,0.3689881035493357,-0.01896806005869979,0.4227516274028945,0.739908536292325,0.8272037527291616,-0.4509373547095678,0.6089298894043382,0.9716041948819335,0.4015190031350763,-0.8127999105262753,0.9784690323352374,957.3626373626374,731.7216117216118,1609.70695970696,802.2344322344322,756.7032967032967,0.881775,0.071655,0.509399,-4.979553,88.517914,-27.357635,1,2,4,4,2,40.000000
2021-11-11 01:30:12.393,,,,,,,,,,,,,,,,,,,,,,,,,,,,,,,,,,,,,,/muse/elements/blink
2021-11-11 01:30:12.600,,,,,,,,,,,,,,,,,,,,,,,,,,,,,,,,,,,,,,/muse/elements/blink
2021-11-11 01:30:13.007,1.547621085271952,0.3042052996196927,0.353832184550172,1.182719883590128,0.5666441191715208,-0.1885987944433161,-0.6141005397637354,0.2157343048797764,0.6361840994541813,0.3689881035493357,-0.01896806005869979,0.4227516274028945,0.739908536292325,0.8272037527291616,-0.4509373547095678,0.6089298894043382,0.9716041948819335,0.4015190031350763,-0.8127999105262753,0.9784690323352374,649.5238095238095,784.1025641025641,0,755.0915750915751,635.4212454212454,-0.375671,0.305786,0.890320,-0.014954,-17.966766,-1.293488,1,2,4,4,2,40.000000
2021-11-11 01:30:13.982,,,,,,,,,,,,,,,,,,,,,,,,,,,,,,,,,,,,,,/muse/elements/jaw_clench
2021-11-11 01:30:14.007,1.547621085271952,0.3042052996196927,0.353832184550172,1.182719883590128,0.5666441191715208,-0.1885987944433161,-0.6141005397637354,0.2157343048797764,0.6361840994541813,0.3689881035493357,-0.01896806005869979,0.4227516274028945,0.739908536292325,0.8272037527291616,-0.4509373547095678,0.6089298894043382,0.9716041948819335,0.4015190031350763,-0.8127999105262753,0.9784690323352374,918.2783882783883,736.5567765567765,695.4578754578755,819.96336996337,852.1978021978023,-0.358459,0.118530,0.942139,-11.327362,-9.375916,0.328979,1,2,1,2,2,40.000000
2021-11-11 01:30:15.009,1.547621085271952,1.063742788993945,0.353832184550172,1.182719883590128,0.5666441191715208,0.4717021271328934,-0.6141005397637354,0.2157343048797764,0.6361840994541813,0.5301061745511374,-0.01896806005869979,0.4227516274028945,0.739908536292325,0.3670756887494331,-0.4509373547095678,0.6089298894043382,0.9716041948819335,0.2944355650619105,-0.8127999105262753,0.9784690323352374,879.1941391941392,726.4835164835165,343.6996336996337,775.6410256410256,703.1135531135532,-0.346375,0.174255,0.953918,20.508881,-8.179626,-21.151886,1,2,1,2,2,40.000000
2021-11-11 01:30:16.010,1.547621085271952,1.004062702371752,0.353832184550172,1.598601179502693,0.5666441191715208,0.5755030809236767,-0.6141005397637354,1.021483072329966,0.6361840994541813,0.6658084079334902,-0.01896806005869979,0.9321509310195538,0.739908536292325,0.3071851486735547,-0.4509373547095678,1.054510902054642,0.9716041948819335,0.2582707544154757,-0.8127999105262753,0.9546006145391466,921.5018315018315,980.7326007326008,8.864468864468865,759.92673992674,709.5604395604396,-0.391479,0.131042,0.912231,-3.439331,-2.968292,-0.366364,1,2,1,2,2,40.000000
2021-11-11 01:30:16.440,,,,,,,,,,,,,,,,,,,,,,,,,,,,,,,,,,,,,,/muse/elements/blink
2021-11-11 01:30:17.011,1.547621085271952,1.025830843995833,0.353832184550172,1.469599393362724,0.5666441191715208,0.7414496003559838,-0.6141005397637354,0.915065736739776,0.6361840994541813,0.6577271706772716,-0.01896806005869979,0.9491368203120589,0.739908536292325,0.397283515515275,-0.4509373547095678,1.009465726293915,0.9716041948819335,0.533813929072575,-0.8127999105262753,0.8778581333016544,960.989010989011,851.3919413919414,608.8278388278388,804.6520146520147,805.8608058608058,-0.365417,0.127563,0.933044,3.760834,1.547699,3.431854,1,1,1,4,1,40.000000
2021-11-11 01:30:18.012,1.547621085271952,1.674880133763354,0.353832184550172,1.249361838987861,0.5666441191715208,0.6882116076179745,-0.6141005397637354,0.7140842025319429,0.6361840994541813,0.8569243274382232,-0.01896806005869979,0.7017944628171096,0.739908536292325,1.070136698464727,-0.4509373547095678,0.9702000585256386,0.9716041948819335,0.9870331136356344,-0.8127999105262753,0.8309452828749182,949.3040293040293,824.3956043956044,589.0842490842491,790.5494505494506,783.2967032967033,-0.361389,0.145142,0.934082,3.087921,-7.461853,-1.652374,1,1,1,4,1,40.000000
2021-11-11 01:30:19.015,1.520583247559728,1.552811997503954,0.353832184550172,1.262096919510465,0.8610476054791344,0.4805672526932877,-0.6141005397637354,0.9066133682396561,0.7099897025013169,0.8569243274382232,-0.01896806005869979,0.9206801372153929,1.160429678750734,0.9686731631063185,-0.4509373547095678,1.073249524999229,1.165900885485134,0.9527544772094296,-0.8127999105262753,1.091709151342039,967.8388278388279,769.5970695970697,112.8205128205128,786.9230769230769,779.2673992673992,-0.373657,0.130310,0.929504,5.966492,-5.099182,1.742096,1,1,1,2,1,40.000000
2021-11-11 01:30:19.978,,,,,,,,,,,,,,,,,,,,,,,,,,,,,,,,,,,,,,/muse/elements/jaw_clench
2021-11-11 01:30:20.014,1.658145950023055,0.9673391153914691,0.353832184550172,1.010518044448444,0.7317093237552824,0.2903051922917897,-0.6141005397637354,0.2514904979011684,0.6191240353127534,0.4990507420747238,-0.01896806005869979,0.5955631357303051,1.073801523277685,0.7734634987748421,-0.4509373547095678,0.976821765926284,1.083649882514141,0.7595328545860558,-0.8127999105262753,0.8568163685602402,886.0439560439561,1621.391941391941,0,757.5091575091575,802.2344322344322,-0.518127,0.134827,0.917236,38.916779,-13.974152,-159.824219,1,1,1,2,1,40.000000
2021-11-11 01:30:20.092,,,,,,,,,,,,,,,,,,,,,,,,,,,,,,,,,,,,,,/muse/elements/blink
2021-11-11 01:30:20.323,,,,,,,,,,,,,,,,,,,,,,,,,,,,,,,,,,,,,,/muse/elements/blink
2021-11-11 01:30:20.509,,,,,,,,,,,,,,,,,,,,,,,,,,,,,,,,,,,,,,/muse/elements/blink
2021-11-11 01:30:21.023,1.909900410411427,1.426324992344929,0.353832184550172,0.9085124999678071,0.5500587120919662,0.7011092030524045,-0.6141005397637354,0.1478417423429134,0.3099042753668684,0.3721714657389906,-0.01896806005869979,0.5358905222651281,0.8815909164995581,0.7042976106389716,-0.4509373547095678,0.8965342266420439,1.051785717438847,0.4245983118433518,-0.8127999105262753,0.6553092486188423,55.60439560439561,694.2490842490843,0,682.5641025641025,718.4249084249085,-0.250854,0.237061,0.971130,-24.561310,-8.904877,110.230560,1,1,1,2,1,40.000000
2021-11-11 01:30:21.218,,,,,,,,,,,,,,,,,,,,,,,,,,,,,,,,,,,,,,/muse/elements/blink
2021-11-11 01:30:21.538,,,,,,,,,,,,,,,,,,,,,,,,,,,,,,,,,,,,,,/muse/elements/blink
2021-11-11 01:30:22.029,1.909900410411427,1.426324992344929,0.353832184550172,0.9085124999678071,0.5500587120919662,0.7011092030524045,-0.6141005397637354,0.1478417423429134,0.3099042753668684,0.3721714657389906,-0.01896806005869979,0.5358905222651281,0.8815909164995581,0.7042976106389716,-0.4509373547095678,0.8965342266420439,1.051785717438847,0.4245983118433518,-0.8127999105262753,0.6553092486188423,957.3626373626374,717.6190476190476,0,834.0659340659341,758.3150183150184,-0.191345,0.275391,1.001465,46.819763,-10.332947,-139.763947,1,1,1,1,1,40.000000
2021-11-11 01:30:22.155,,,,,,,,,,,,,,,,,,,,,,,,,,,,,,,,,,,,,,/muse/elements/blink
2021-11-11 01:30:23.016,1.909900410411427,0.9534189033797387,-inf,0.9085124999678071,0.5500587120919662,0.3417695617664492,-inf,0.1478417423429134,0.3099042753668684,0.2818845785168249,-inf,0.5358905222651281,0.8815909164995581,0.8836827984044159,-inf,0.8965342266420439,1.051785717438847,0.9188295095332011,-inf,0.6553092486188423,900.1465201465202,759.92673992674,0,734.1391941391942,821.978021978022,-0.238464,0.247070,0.959473,-2.542114,-11.334839,23.409882,1,2,1,1,2,40.000000
2021-11-11 01:30:23.265,,,,,,,,,,,,,,,,,,,,,,,,,,,,,,,,,,,,,,/muse/elements/blink
2021-11-11 01:30:24.017,1.909900410411427,1.27773235877848,-inf,0.9085124999678071,0.5500587120919662,0.95837520260019,-inf,0.1478417423429134,0.3099042753668684,0.4543132315512098,-inf,0.5358905222651281,0.8815909164995581,0.6261867069242167,-inf,0.8965342266420439,1.051785717438847,0.6676214886747266,-inf,0.6553092486188423,968.2417582417582,786.5201465201466,0,768.3882783882784,698.2783882783883,-0.284180,0.177246,0.963989,-3.461761,4.314117,20.964966,1,2,1,1,2,40.000000
2021-11-11 01:30:25.022,0.8601017278371712,1.244487611902564,-inf,1.541902720675681,0.7769898367285912,0.8189250704820666,-inf,0.5439770414010811,0.6689099382604162,0.502345149559256,-inf,0.8664098549869891,0.8684206314629378,0.1321585029668856,-inf,0.8152812803692231,0.8600436306598476,0.268664353210532,-inf,0.7134608793666056,834.8717948717949,780.0732600732601,0,745.0183150183151,788.9377289377289,-0.212708,0.148621,0.950867,6.011353,-10.699310,1.667328,1,1,1,1,1,40.000000
2021-11-11 01:30:25.398,,,,,,,,,,,,,,,,,,,,,,,,,,,,,,,,,,,,,,/muse/elements/blink
2021-11-11 01:30:25.722,,,,,,,,,,,,,,,,,,,,,,,,,,,,,,,,,,,,,,/muse/elements/jaw_clench
2021-11-11 01:30:26.018,0.6991470341308714,0.7521399574176648,-0.5876289386766195,1.543411529220151,0.6871227598681225,0.2523894683340552,-1.072554871666175,0.5673216237928801,0.7485619232483461,0.3208007705209232,-0.1521083828012796,0.6869994492283354,0.8937295634834154,0.2317563646313396,-1.422878771995079,0.8728450550627541,0.866382784861214,0.3515491807134788,-1.542980657664818,0.6742166406776667,863.8827838827839,799.8168498168499,4.835164835164836,780.0732600732601,814.3223443223443,-0.383667,0.192139,0.905945,5.398254,0.127106,-1.248627,1,1,1,1,1,40.000000
2021-11-11 01:30:26.613,,,,,,,,,,,,,,,,,,,,,,,,,,,,,,,,,,,,,,/muse/elements/blink
2021-11-11 01:30:27.021,0.6623030174360107,0.9726470867260018,0.1936828289676408,1.602738148896255,0.606135523681313,0.4563363450053099,-0.102124981940038,0.5934041864028572,0.6946317219349522,0.3189937023917302,0.3080108664085205,0.5225051295693346,0.9097488140019582,0.3093211536100334,0.4190731975581004,0.9535482579078534,0.8849738447686152,0.4172473107785256,0.2315386650172152,0.6612683127655293,712.3809523809524,792.967032967033,0,757.1062271062272,705.934065934066,-0.296936,0.221375,0.928223,7.454376,5.129089,15.058289,1,1,1,1,1,40.000000
2021-11-11 01:30:27.110,,,,,,,,,,,,,,,,,,,,,,,,,,,,,,,,,,,,,,/muse/elements/blink
2021-11-11 01:30:28.021,0.6623030174360107,1.029465696363693,0.5032815723125404,1.602738148896255,0.606135523681313,0.3539829355592112,-0.1097532290160427,0.5934041864028572,0.6946317219349522,0.3587088958928269,0.3705707875434931,0.5225051295693346,0.9097488140019582,0.3753043280371659,0.223648991133883,0.9535482579078534,0.8849738447686152,0.202131148347246,-0.001420127913642936,0.6612683127655293,752.2710622710623,807.8754578754579,4.835164835164836,811.5018315018315,755.0915750915751,-0.299744,0.247131,0.935486,2.706604,2.594452,-0.381317,1,2,1,1,2,40.000000
2021-11-11 01:30:28.428,,,,,,,,,,,,,,,,,,,,,,,,,,,,,,,,,,,,,,/muse/elements/blink
2021-11-11 01:30:29.019,1.219964487073802,0.6959852628299442,0.7888783749991222,1.602738148896255,0.9314148374635065,0.6519674727957708,0.4441188232767935,0.5934041864028572,0.499818969003238,0.5162415651387636,0.8783237210188479,0.5225051295693346,0.9388386979076073,0.4218450139152851,0.7287693466151076,0.9535482579078534,0.9927503111090216,0.3823734688397357,0.5111738655290593,0.6612683127655293,619.3040293040293,804.6520146520147,0,775.2380952380953,712.3809523809524,-0.356750,0.307251,0.893860,3.783264,2.325287,1.585083,1,1,1,1,1,40.000000
2021-11-11 01:30:29.559,,,,,,,,,,,,,,,,,,,,,,,,,,,,,,,,,,,,,,/muse/elements/jaw_clench
2021-11-11 01:30:29.650,,,,,,,,,,,,,,,,,,,,,,,,,,,,,,,,,,,,,,/muse/elements/blink
2021-11-11 01:30:30.027,1.219964487073802,1.00616234726711,0.7215499235376397,1.602738148896255,0.9314148374635065,0.7807559369111419,0.4330803727105716,0.5934041864028572,0.499818969003238,0.5337369956518581,0.8783237210188479,0.5225051295693346,0.9388386979076073,0.4630551478320714,0.7791049544602068,0.9535482579078534,0.9927503111090216,0.3615825295138029,0.5764758169194028,0.6612683127655293,495.2014652014652,1416.300366300366,0,772.014652014652,667.6556776556777,-0.516296,0.300781,0.863708,34.468079,-5.689850,-9.846954,1,1,1,1,1,40.000000
2021-11-11 01:30:30.603,,,,,,,,,,,,,,,,,,,,,,,,,,,,,,,,,,,,,,/muse/elements/jaw_clench
2021-11-11 01:30:30.874,,,,,,,,,,,,,,,,,,,,,,,,,,,,,,,,,,,,,,/muse/elements/blink
