TimeStamp,Delta_TP9,Delta_AF7,Delta_AF8,Delta_TP10,Theta_TP9,Theta_AF7,Theta_AF8,Theta_TP10,Alpha_TP9,Alpha_AF7,Alpha_AF8,Alpha_TP10,Beta_TP9,Beta_AF7,Beta_AF8,Beta_TP10,Gamma_TP9,Gamma_AF7,Gamma_AF8,Gamma_TP10,RAW_TP9,RAW_AF7,RAW_AF8,RAW_TP10,AUX_RIGHT,Accelerometer_X,Accelerometer_Y,Accelerometer_Z,Gyro_X,Gyro_Y,Gyro_Z,HeadBandOn,HSI_TP9,HSI_AF7,HSI_AF8,HSI_TP10,Battery,Elements
2021-11-26 23:05:19.490,,,,,,,,,,,,,,,,,,,,,,,,,,,,,,,,,,,,,,/muse/elements/jaw_clench
2021-11-26 23:05:19.600,,,,,,,,,,,,,,,,,,,,,,,,,,,,,,,,,,,,,,/muse/elements/blink
2021-11-26 23:05:19.786,0,0,0,0,0,0,0,0,0,0,0,0,0,0,0,0,0,0,0,0,0,1623.809523809524,1104.835164835165,1624.212454212454,0,-0.676941,-0.154785,0.767578,11.753540,-13.346100,-17.062073,1,4,4,2,4,80.000000
2021-11-26 23:05:20.032,,,,,,,,,,,,,,,,,,,,,,,,,,,,,,,,,,,,,,/muse/elements/blink
2021-11-26 23:05:20.208,,,,,,,,,,,,,,,,,,,,,,,,,,,,,,,,,,,,,,/muse/elements/blink
2021-11-26 23:05:20.622,,,,,,,,,,,,,,,,,,,,,,,,,,,,,,,,,,,,,,/muse/elements/jaw_clench
2021-11-26 23:05:20.788,0,0,0,0,0,0,0,0,0,0,0,0,0,0,0,0,0,0,0,0,0.4029304029304029,1620.989010989011,825.2014652014652,0,0,-0.599426,-0.166382,0.817688,3.648682,-5.592651,1.121521,1,4,4,1,4,90.000000
2021-11-26 23:05:21.249,,,,,,,,,,,,,,,,,,,,,,,,,,,,,,,,,,,,,,/muse/elements/blink
2021-11-26 23:05:21.786,0,0,1.372327358572701,0,0,0,0.9416820211315667,0,0,0,0.6205693930146241,0,0,0,1.180991722700102,0,0,0,0.8129180026097397,0,1401.794871794872,1623.809523809524,822.3809523809524,297.3626373626374,1623.406593406593,-0.614014,-0.113953,0.799744,3.185120,-4.837494,-3.140259,1,4,4,1,4,90.000000
2021-11-26 23:05:21.956,,,,,,,,,,,,,,,,,,,,,,,,,,,,,,,,,,,,,,/muse/elements/blink
2021-11-26 23:05:22.131,,,,,,,,,,,,,,,,,,,,,,,,,,,,,,,,,,,,,,/muse/elements/blink
2021-11-26 23:05:22.789,0,0,1.332996694318033,0,0,0,0.9824271921480885,0,0,0,0.6440935859341262,0,0,0,1.158783612958761,0,0,0,0.8353241227023226,0,0,0,848.974358974359,0,576.5934065934066,-0.594177,-0.113525,0.813782,4.314117,-2.796326,0.785065,1,4,4,1,2,90.000000
2021-11-26 23:05:23.794,0,0,0.9421002246238421,0,0,0,0.6443676182901827,0,0,0,0.709557707907846,0,0,0,0.7665074179355877,0,0,0,0.541949770368817,0,0,546.7765567765568,834.8717948717949,456.923076923077,510.9157509157509,-0.588440,-0.104309,0.800476,4.396362,-4.912262,-1.996307,1,4,4,1,4,90.000000
2021-11-26 23:05:24.744,,,,,,,,,,,,,,,,,,,,,,,,,,,,,,,,,,,,,,/muse/elements/jaw_clench
2021-11-26 23:05:24.787,-inf,0,0.5937914818126149,0,-inf,0,0.376245329042604,0,-inf,0,0.7196722210908911,0,-inf,0,0.7168137189787929,0,-inf,0,0.6119077700040404,0,0,805.0549450549451,802.2344322344322,1095.164835164835,1026.263736263736,-0.567078,-0.104675,0.812256,3.925323,-5.188904,-1.495361,1,4,4,1,2,90.000000
2021-11-26 23:05:24.898,,,,,,,,,,,,,,,,,,,,,,,,,,,,,,,,,,,,,,/muse/elements/blink
2021-11-26 23:05:25.687,,,,,,,,,,,,,,,,,,,,,,,,,,,,,,,,,,,,,,/muse/elements/blink
2021-11-26 23:05:25.687,,,,,,,,,,,,,,,,,,,,,,,,,,,,,,,,,,,,,,/muse/elements/jaw_clench
2021-11-26 23:05:25.787,-inf,0,0.2318655281872159,0,-inf,0,0.06259052349747768,0,-inf,0,0.6568342046538608,0,-inf,0,0.7627094461129387,0,-inf,0,0.7000887541666706,0,0,940.8424908424909,804.6520146520147,591.0989010989011,396.8864468864469,-0.594116,-0.109436,0.790039,5.069275,-3.491669,1.704712,1,4,4,1,2,90.000000
2021-11-26 23:05:25.885,,,,,,,,,,,,,,,,,,,,,,,,,,,,,,,,,,,,,,/muse/elements/blink
2021-11-26 23:05:26.408,,,,,,,,,,,,,,,,,,,,,,,,,,,,,,,,,,,,,,/muse/elements/blink
2021-11-26 23:05:26.790,-inf,0,1.076365132374707,0,-inf,0,0.4638361549017746,0,-inf,0,0.628729851865666,0,-inf,0,0.7188224016132424,0,-inf,0,0.5741521857865809,0,0,1113.296703296703,800.6227106227107,890.8791208791209,895.7142857142858,-0.610229,-0.096802,0.805054,2.871094,-3.364563,-0.134583,1,4,4,1,2,90.000000
2021-11-26 23:05:27.193,,,,,,,,,,,,,,,,,,,,,,,,,,,,,,,,,,,,,,/muse/elements/blink
2021-11-26 23:05:27.410,,,,,,,,,,,,,,,,,,,,,,,,,,,,,,,,,,,,,,/muse/elements/blink
2021-11-26 23:05:27.787,-inf,0,1.334937729103821,0,-inf,0,0.7442488876013574,0,-inf,0,0.475748704562832,0,-inf,0,0.5523698204457022,0,-inf,0,0.2286700329862021,0,0,325.1648351648352,905.3846153846154,1097.179487179487,757.5091575091575,-0.634094,-0.111938,0.800720,-1.338348,-3.618774,-7.745972,1,4,4,1,2,90.000000
2021-11-26 23:05:27.804,,,,,,,,,,,,,,,,,,,,,,,,,,,,,,,,,,,,,,/muse/elements/blink
2021-11-26 23:05:28.131,,,,,,,,,,,,,,,,,,,,,,,,,,,,,,,,,,,,,,/muse/elements/blink
2021-11-26 23:05:28.416,,,,,,,,,,,,,,,,,,,,,,,,,,,,,,,,,,,,,,/muse/elements/blink
2021-11-26 23:05:28.788,-inf,0,0.9944164445523646,0,-inf,0,0.5855213881058506,0,-inf,0,0.3462291404548001,0,-inf,0,0.4239315304934951,0,-inf,0,-0.02969208912299724,0,0,0,1046.813186813187,944.0659340659341,611.6483516483516,-0.671814,-0.010071,0.798340,1.704712,-4.254303,-2.392578,1,4,4,1,2,90.000000
2021-11-26 23:05:29.241,,,,,,,,,,,,,,,,,,,,,,,,,,,,,,,,,,,,,,/muse/elements/jaw_clench
2021-11-26 23:05:29.543,,,,,,,,,,,,,,,,,,,,,,,,,,,,,,,,,,,,,,/muse/elements/blink
2021-11-26 23:05:29.792,-inf,0,0.9944164445523646,0,-inf,0,0.5855213881058506,0,-inf,0,0.3462291404548001,0,-inf,0,0.4239315304934951,0,-inf,0,-0.02969208912299724,0,1623.406593406593,31.02564102564103,816.3369963369963,0,13.2967032967033,-0.609741,-0.059326,0.804932,4.964600,-19.118195,-11.529236,1,4,4,1,4,90.000000
2021-11-26 23:05:29.955,,,,,,,,,,,,,,,,,,,,,,,,,,,,,,,,,,,,,,/muse/elements/blink
2021-11-26 23:05:30.559,,,,,,,,,,,,,,,,,,,,,,,,,,,,,,,,,,,,,,/muse/elements/blink
2021-11-26 23:05:30.668,,,,,,,,,,,,,,,,,,,,,,,,,,,,,,,,,,,,,,/muse/elements/jaw_clench
2021-11-26 23:05:30.787,-inf,0,0.9944164445523646,0,-inf,0,0.5855213881058506,0,-inf,0,0.3462291404548001,0,-inf,0,0.4239315304934951,0,-inf,0,-0.02969208912299724,0,0,1623.809523809524,783.2967032967033,0,578.2051282051282,-0.664673,-0.043640,0.785461,5.592651,-5.368347,7.850647,1,4,4,1,4,90.000000
2021-11-26 23:05:30.994,,,,,,,,,,,,,,,,,,,,,,,,,,,,,,,,,,,,,,/muse/elements/blink
2021-11-26 23:05:31.192,,,,,,,,,,,,,,,,,,,,,,,,,,,,,,,,,,,,,,/muse/elements/blink
2021-11-26 23:05:31.607,,,,,,,,,,,,,,,,,,,,,,,,,,,,,,,,,,,,,,/muse/elements/jaw_clench
2021-11-26 23:05:31.790,-inf,0,0.5632634521487412,0,-inf,0,0.08080040156994908,0,-inf,0,0.2075666756169,0,-inf,0,0.2692954046969986,0,-inf,0,0.1795442906389327,0,1623.406593406593,1622.197802197802,794.5787545787546,1583.113553113553,867.9120879120879,-0.629761,-0.053223,0.794678,3.125305,-1.854248,-5.046844,1,4,4,1,4,90.000000
2021-11-26 23:05:32.062,,,,,,,,,,,,,,,,,,,,,,,,,,,,,,,,,,,,,,/muse/elements/jaw_clench
2021-11-26 23:05:32.215,,,,,,,,,,,,,,,,,,,,,,,,,,,,,,,,,,,,,,/muse/elements/blink
2021-11-26 23:05:32.787,-inf,0,0.7066834698456149,0,-inf,0,0.1782702336101955,0,-inf,0,0.3492749804861135,0,-inf,0,0.4010437468488525,0,-inf,0,0.2638875483209214,0,1623.003663003663,1432.820512820513,765.9706959706959,629.7802197802198,983.1501831501831,-0.605835,-0.035095,0.790588,5.158997,-3.028107,2.729034,1,4,4,1,4,90.000000
2021-11-26 23:05:33.299,,,,,,,,,,,,,,,,,,,,,,,,,,,,,,,,,,,,,,/muse/elements/blink
2021-11-26 23:05:33.429,,,,,,,,,,,,,,,,,,,,,,,,,,,,,,,,,,,,,,/muse/elements/jaw_clench
2021-11-26 23:05:33.518,,,,,,,,,,,,,,,,,,,,,,,,,,,,,,,,,,,,,,/muse/elements/blink
2021-11-26 23:05:33.788,-inf,0,0.411338324291962,0,-inf,0,-0.06723084905696483,0,-inf,0,0.2826288809826538,0,-inf,0,0.4879225107319501,0,-inf,0,0.2718060658641396,0,1623.003663003663,1093.956043956044,782.0879120879121,957.7655677655678,842.9304029304029,-0.622986,-0.059143,0.801575,5.039368,-7.880554,-0.171967,1,4,4,1,2,90.000000
2021-11-26 23:05:34.643,,,,,,,,,,,,,,,,,,,,,,,,,,,,,,,,,,,,,,/muse/elements/jaw_clench
2021-11-26 23:05:34.753,,,,,,,,,,,,,,,,,,,,,,,,,,,,,,,,,,,,,,/muse/elements/blink
2021-11-26 23:05:34.786,-inf,0,-0.110882879588482,0,-inf,0,-0.1131919310328106,0,-inf,0,0.2705449627291823,0,-inf,0,0.4806787148367668,0,-inf,0,0.1414459259475253,0,1623.406593406593,1104.029304029304,796.1904761904763,648.3150183150183,754.2857142857143,-0.628845,-0.035889,0.792419,6.190796,-3.686066,-3.551483,1,4,4,1,2,90.000000
2021-11-26 23:05:35.036,,,,,,,,,,,,,,,,,,,,,,,,,,,,,,,,,,,,,,/muse/elements/blink
2021-11-26 23:05:35.360,,,,,,,,,,,,,,,,,,,,,,,,,,,,,,,,,,,,,,/muse/elements/blink
2021-11-26 23:05:35.787,-inf,0,-0.1303566424561721,0,-inf,0,0.02105278750446965,0,-inf,0,0.2133333635323719,0,-inf,0,0.5353814129002135,0,-inf,0,0.1967511441735766,0,0,0,778.8644688644689,0,1620.989010989011,-0.636475,-0.041626,0.768188,1.742096,0.014954,2.639313,1,4,4,1,2,90.000000
2021-11-26 23:05:36.142,,,,,,,,,,,,,,,,,,,,,,,,,,,,,,,,,,,,,,/muse/elements/blink
2021-11-26 23:05:36.142,,,,,,,,,,,,,,,,,,,,,,,,,,,,,,,,,,,,,,/muse/elements/jaw_clench
2021-11-26 23:05:36.775,,,,,,,,,,,,,,,,,,,,,,,,,,,,,,,,,,,,,,/muse/elements/blink
2021-11-26 23:05:36.775,,,,,,,,,,,,,,,,,,,,,,,,,,,,,,,,,,,,,,/muse/elements/jaw_clench
2021-11-26 23:05:36.789,-inf,0,-0.1303566424561721,0,-inf,0,0.02105278750446965,0,-inf,0,0.2133333635323719,0,-inf,0,0.5353814129002135,0,-inf,0,0.1967511441735766,0,0,0,741.7948717948718,0,760.3296703296703,-0.694702,-0.068237,0.786072,-4.815063,-14.116211,-7.731018,1,4,4,1,4,90.000000
2021-11-26 23:05:37.779,,,,,,,,,,,,,,,,,,,,,,,,,,,,,,,,,,,,,,/muse/elements/jaw_clench
2021-11-26 23:05:37.790,-inf,0,1.250518969551932,0,-inf,0,0.7196544611342068,0,-inf,0,0.5086286464680294,0,-inf,0,0.7979183275163882,0,-inf,0,0.6050653074320638,0,0,13.6996336996337,857.032967032967,698.6813186813187,641.4652014652015,-0.609253,-0.058044,0.797729,7.319794,-4.844971,-6.018829,1,4,2,1,2,90.000000
2021-11-26 23:05:37.887,,,,,,,,,,,,,,,,,,,,,,,,,,,,,,,,,,,,,,/muse/elements/blink
2021-11-26 23:05:38.319,,,,,,,,,,,,,,,,,,,,,,,,,,,,,,,,,,,,,,/muse/elements/blink
2021-11-26 23:05:38.688,,,,,,,,,,,,,,,,,,,,,,,,,,,,,,,,,,,,,,/muse/elements/blink
2021-11-26 23:05:38.787,-inf,0,1.250518969551932,0,-inf,0,0.7196544611342068,0,-inf,0,0.5086286464680294,0,-inf,0,0.7979183275163882,0,-inf,0,0.6050653074320638,0,0,457.7289377289378,786.9230769230769,900.952380952381,952.9304029304029,-0.570007,-0.083801,0.793457,1.973877,-8.381500,-1.562653,1,4,2,1,4,90.000000
2021-11-26 23:05:39.188,,,,,,,,,,,,,,,,,,,,,,,,,,,,,,,,,,,,,,/muse/elements/blink
2021-11-26 23:05:39.624,,,,,,,,,,,,,,,,,,,,,,,,,,,,,,,,,,,,,,/muse/elements/blink
2021-11-26 23:05:39.787,-inf,0,1.28666176394424,0,-inf,0,0.7067692822088418,0,-inf,0,0.4927530079349189,0,-inf,0,0.7718887663329319,0,-inf,0,0.638228005086461,0,1533.956043956044,704.3223443223443,776.8498168498169,657.1794871794872,645.4945054945055,-0.616272,-0.084106,0.801453,5.241241,-6.190796,-1.981354,1,4,4,1,2,90.000000
2021-11-26 23:05:40.148,,,,,,,,,,,,,,,,,,,,,,,,,,,,,,,,,,,,,,/muse/elements/blink
2021-11-26 23:05:40.523,,,,,,,,,,,,,,,,,,,,,,,,,,,,,,,,,,,,,,/muse/elements/blink
2021-11-26 23:05:40.787,-inf,0,1.005806562652319,0,-inf,0,0.3073229580710873,0,-inf,0,0.2667299919500338,0,-inf,0,0.9511124655331135,0,-inf,0,0.6455700330569137,0,0,1195.091575091575,771.2087912087912,0,647.1062271062272,-0.612488,-0.059509,0.812378,7.431946,-1.413116,2.646790,1,4,4,1,2,90.000000
2021-11-26 23:05:40.942,,,,,,,,,,,,,,,,,,,,,,,,,,,,,,,,,,,,,,/muse/elements/blink
2021-11-26 23:05:41.120,,,,,,,,,,,,,,,,,,,,,,,,,,,,,,,,,,,,,,/muse/elements/blink
2021-11-26 23:05:41.644,,,,,,,,,,,,,,,,,,,,,,,,,,,,,,,,,,,,,,/muse/elements/blink
2021-11-26 23:05:41.644,,,,,,,,,,,,,,,,,,,,,,,,,,,,,,,,,,,,,,/muse/elements/jaw_clench
2021-11-26 23:05:41.787,-inf,0,0.722395230787754,0,-inf,0,-0.1744863969007677,0,-inf,0,-0.03008656126637879,0,-inf,0,1.03153290695525,0,-inf,0,0.7018534559098273,0,1623.406593406593,450.8791208791209,835.6776556776557,1623.809523809524,704.3223443223443,-0.596497,-0.054138,0.806641,5.009460,-6.415100,-1.517792,1,4,4,1,2,90.000000
2021-11-26 23:05:41.823,,,,,,,,,,,,,,,,,,,,,,,,,,,,,,,,,,,,,,/muse/elements/blink
2021-11-26 23:05:42.426,,,,,,,,,,,,,,,,,,,,,,,,,,,,,,,,,,,,,,/muse/elements/blink
2021-11-26 23:05:42.751,,,,,,,,,,,,,,,,,,,,,,,,,,,,,,,,,,,,,,/muse/elements/blink
2021-11-26 23:05:42.787,-inf,0,0.4390111323458901,0,-inf,0,-0.4476491768181313,0,-inf,0,-0.1331601926670651,0,-inf,0,1.045526720128803,0,-inf,0,0.6954012229494412,0,1286.556776556777,646.3003663003664,753.8827838827839,1176.959706959707,788.5347985347986,-0.610657,-0.068420,0.811462,4.388885,-4.628143,-3.005676,1,4,2,1,2,90.000000
2021-11-26 23:05:42.862,,,,,,,,,,,,,,,,,,,,,,,,,,,,,,,,,,,,,,/muse/elements/jaw_clench
2021-11-26 23:05:43.278,,,,,,,,,,,,,,,,,,,,,,,,,,,,,,,,,,,,,,/muse/elements/blink
2021-11-26 23:05:43.790,-inf,0,0.4390111323458901,0,-inf,0,-0.4476491768181313,0,-inf,0,-0.1331601926670651,0,-inf,0,1.045526720128803,0,-inf,0,0.6954012229494412,0,927.948717948718,670.0732600732601,731.3186813186813,820.3663003663004,716.4102564102565,-0.606445,-0.073853,0.804688,4.157104,-2.676697,-2.385101,1,2,4,1,2,90.000000
2021-11-26 23:05:44.059,,,,,,,,,,,,,,,,,,,,,,,,,,,,,,,,,,,,,,/muse/elements/jaw_clench
2021-11-26 23:05:44.788,-inf,0,1.729181367276092,0,-inf,0,0.4734571540755644,0,-inf,0,0.4260052758680188,0,-inf,0,0.8553374191846199,0,-inf,0,0.9359477379162305,0,950.9157509157509,772.4175824175825,759.92673992674,798.6080586080586,679.7435897435897,-0.601807,-0.075073,0.805237,4.015045,-7.088013,-1.532745,1,4,4,1,2,90.000000
2021-11-26 23:05:44.865,,,,,,,,,,,,,,,,,,,,,,,,,,,,,,,,,,,,,,/muse/elements/jaw_clench
2021-11-26 23:05:45.106,,,,,,,,,,,,,,,,,,,,,,,,,,,,,,,,,,,,,,/muse/elements/jaw_clench
2021-11-26 23:05:45.715,,,,,,,,,,,,,,,,,,,,,,,,,,,,,,,,,,,,,,/muse/elements/jaw_clench
2021-11-26 23:05:45.787,-inf,0,0.5600080947401972,1.729404901930613,-inf,0,0.02616176273001641,1.177742343933905,-inf,0,0.2730052475057342,0.959084738731443,-inf,0,0.7199236833669233,1.115624097335987,-inf,0,0.9237367741635,1.115461078397396,630.5860805860806,373.5164835164835,791.3553113553114,787.3260073260074,722.8571428571429,-0.611877,-0.067078,0.811279,5.338440,-4.964600,-0.807495,1,2,4,1,1,90.000000
2021-11-26 23:05:45.892,,,,,,,,,,,,,,,,,,,,,,,,,,,,,,,,,,,,,,/muse/elements/blink
2021-11-26 23:05:45.983,,,,,,,,,,,,,,,,,,,,,,,,,,,,,,,,,,,,,,/muse/elements/jaw_clench
2021-11-26 23:05:46.223,,,,,,,,,,,,,,,,,,,,,,,,,,,,,,,,,,,,,,/muse/elements/jaw_clench
2021-11-26 23:05:46.617,,,,,,,,,,,,,,,,,,,,,,,,,,,,,,,,,,,,,,/muse/elements/blink
2021-11-26 23:05:46.787,-inf,0,0.8086063993693403,1.798367614369224,-inf,0,0.3289142485384208,1.125101971749904,-inf,0,0.568228652211976,0.7503869089229914,-inf,0,0.8016197959598519,1.083497181031787,-inf,0,0.7580439110304251,1.032377872192218,793.7728937728938,504.0659340659341,837.2893772893773,906.996336996337,730.1098901098901,-0.587219,-0.061951,0.813293,2.138367,-4.396362,4.553375,1,2,4,1,1,90.000000
2021-11-26 23:05:47.032,,,,,,,,,,,,,,,,,,,,,,,,,,,,,,,,,,,,,,/muse/elements/blink
2021-11-26 23:05:47.445,,,,,,,,,,,,,,,,,,,,,,,,,,,,,,,,,,,,,,/muse/elements/blink
2021-11-26 23:05:47.787,-inf,0,2.04002429862182,1.798367614369224,-inf,0,0.5645159116442353,1.125101971749904,-inf,0,0.849639247795808,0.7503869089229914,-inf,0,0.6790965028770988,1.083497181031787,-inf,0,0.3737191121639367,1.032377872192218,245.3846153846154,587.4725274725275,769.5970695970697,1480.769230769231,795.7875457875458,-0.558899,-0.035889,0.824280,4.650574,2.743988,-23.843536,1,4,4,1,1,90.000000
2021-11-26 23:05:47.812,,,,,,,,,,,,,,,,,,,,,,,,,,,,,,,,,,,,,,/muse/elements/blink
2021-11-26 23:05:48.247,,,,,,,,,,,,,,,,,,,,,,,,,,,,,,,,,,,,,,/muse/elements/blink
2021-11-26 23:05:48.787,-inf,0,1.638447460071726,1.798367614369224,-inf,0,0.3745309504958313,1.125101971749904,-inf,0,0.849639247795808,0.7503869089229914,-inf,0,0.2979922063350571,1.083497181031787,-inf,0,0.195629539387814,1.032377872192218,1222.490842490843,916.6666666666667,770.4029304029305,962.1978021978023,765.1648351648352,-0.518982,-0.046997,0.826538,5.338440,-2.362671,-8.127289,1,4,4,1,2,90.000000
2021-11-26 23:05:48.876,,,,,,,,,,,,,,,,,,,,,,,,,,,,,,,,,,,,,,/muse/elements/blink
2021-11-26 23:05:49.138,,,,,,,,,,,,,,,,,,,,,,,,,,,,,,,,,,,,,,/muse/elements/blink
2021-11-26 23:05:49.568,,,,,,,,,,,,,,,,,,,,,,,,,,,,,,,,,,,,,,/muse/elements/blink
2021-11-26 23:05:49.791,-inf,0,0.5928469330885747,1.798367614369224,-inf,0,0.2346938878256172,1.125101971749904,-inf,0,0.2426926816671442,0.7503869089229914,-inf,0,0.2166062890348807,1.083497181031787,-inf,0,0.1562317386470139,1.032377872192218,0,0,812.7106227106227,761.5384615384615,779.6703296703297,-0.614868,-0.054749,0.832642,5.615082,-2.766418,-2.100983,1,4,4,1,2,90.000000
2021-11-26 23:05:50.494,,,,,,,,,,,,,,,,,,,,,,,,,,,,,,,,,,,,,,/muse/elements/blink
2021-11-26 23:05:50.788,-inf,0,1.935147203688841,1.798367614369224,-inf,0,0.5566607181366781,1.125101971749904,-inf,0,0.2751774633631259,0.7503869089229914,-inf,0,0.4257639293861442,1.083497181031787,-inf,0,0.4918699773782901,1.032377872192218,1141.904761904762,1.611721611721612,770,788.9377289377289,683.7728937728938,-0.616028,-0.065918,0.832642,3.215027,-2.489777,-1.435547,1,4,4,1,2,90.000000
2021-11-26 23:05:51.560,,,,,,,,,,,,,,,,,,,,,,,,,,,,,,,,,,,,,,/muse/elements/blink
2021-11-26 23:05:51.712,,,,,,,,,,,,,,,,,,,,,,,,,,,,,,,,,,,,,,/muse/elements/jaw_clench
2021-11-26 23:05:51.787,-inf,0,1.868143443648037,1.798367614369224,-inf,0,0.3849370717997439,1.125101971749904,-inf,0,0.3158904669721811,0.7503869089229914,-inf,0,0.4566705939990189,1.083497181031787,-inf,0,0.4592669110094423,1.032377872192218,982.7472527472528,466.1904761904762,774.0293040293041,706.7399267399268,788.9377289377289,-0.584229,-0.061951,0.823792,4.732819,-5.390778,-0.194397,1,2,4,1,2,95.000000
2021-11-26 23:05:52.346,,,,,,,,,,,,,,,,,,,,,,,,,,,,,,,,,,,,,,/muse/elements/blink
2021-11-26 23:05:52.611,,,,,,,,,,,,,,,,,,,,,,,,,,,,,,,,,,,,,,/muse/elements/blink
2021-11-26 23:05:52.790,-inf,0,0.7335936797108009,1.798367614369224,-inf,0,0.06115732335278086,1.125101971749904,-inf,0,0.4637086125539063,0.7503869089229914,-inf,0,0.8379238835263324,1.083497181031787,-inf,0,0.5122067243404754,1.032377872192218,787.7289377289378,630.5860805860806,790.952380952381,630.1831501831502,845.3479853479854,-0.567932,-0.069458,0.821838,4.912262,-7.095490,-0.553284,1,2,4,1,2,95.000000
2021-11-26 23:05:53.029,,,,,,,,,,,,,,,,,,,,,,,,,,,,,,,,,,,,,,/muse/elements/blink
2021-11-26 23:05:53.787,-inf,0,0.7197862820308091,1.798367614369224,-inf,0,-0.009723034302124407,1.125101971749904,-inf,0,0.6400777785374149,0.7503869089229914,-inf,0,0.821223267707743,1.083497181031787,-inf,0,0.5142924120492236,1.032377872192218,792.5641025641025,799.4139194139194,784.1025641025641,750.6593406593407,589.4871794871796,-0.589661,-0.074524,0.826599,4.792633,-3.095398,-1.360779,1,2,4,1,2,95.000000
2021-11-26 23:05:54.009,,,,,,,,,,,,,,,,,,,,,,,,,,,,,,,,,,,,,,/muse/elements/jaw_clench
2021-11-26 23:05:54.532,,,,,,,,,,,,,,,,,,,,,,,,,,,,,,,,,,,,,,/muse/elements/jaw_clench
2021-11-26 23:05:54.772,,,,,,,,,,,,,,,,,,,,,,,,,,,,,,,,,,,,,,/muse/elements/jaw_clench
2021-11-26 23:05:54.787,-inf,0,1.132382039959001,1.798367614369224,-inf,0,0.3904364003583609,1.125101971749904,-inf,0,0.6385504908696688,0.7503869089229914,-inf,0,0.9153876738374069,1.083497181031787,-inf,0,0.7141294103165414,1.032377872192218,643.4798534798535,498.021978021978,789.7435897435897,792.5641025641025,870.3296703296703,-0.580750,-0.084778,0.818054,4.344025,-4.687958,-1.121521,1,2,4,1,2,95.000000
2021-11-26 23:05:55.235,,,,,,,,,,,,,,,,,,,,,,,,,,,,,,,,,,,,,,/muse/elements/jaw_clench
2021-11-26 23:05:55.786,-inf,0,1.702038217841657,1.798367614369224,-inf,0,0.7940729544366335,1.125101971749904,-inf,0,0.2007724955768231,0.7503869089229914,-inf,0,0.7041578804130743,1.083497181031787,-inf,0,0.6940964328643561,1.032377872192218,734.1391941391942,514.5421245421246,831.2454212454213,721.2454212454213,682.1611721611722,-0.584412,-0.085571,0.822021,4.658051,-6.153412,-0.276642,1,2,4,1,2,95.000000
2021-11-26 23:05:55.828,,,,,,,,,,,,,,,,,,,,,,,,,,,,,,,,,,,,,,/muse/elements/jaw_clench
2021-11-26 23:05:55.980,,,,,,,,,,,,,,,,,,,,,,,,,,,,,,,,,,,,,,/muse/elements/blink
2021-11-26 23:05:56.680,,,,,,,,,,,,,,,,,,,,,,,,,,,,,,,,,,,,,,/muse/elements/blink
2021-11-26 23:05:56.787,-inf,0,1.278271393505978,1.798367614369224,-inf,0,0.4303596525114959,1.125101971749904,-inf,0,0.435679131296156,0.7503869089229914,-inf,0,0.5677675263829217,1.083497181031787,-inf,0,0.4963117425673557,1.032377872192218,831.2454212454213,848.974358974359,766.7765567765568,780.0732600732601,663.2234432234433,-0.584656,-0.080872,0.822327,4.082336,-3.289795,-1.547699,1,2,4,1,2,95.000000
2021-11-26 23:05:57.787,-inf,0,0.947939529466541,1.798367614369224,-inf,0,0.3761700949793445,1.125101971749904,-inf,0,0.435679131296156,0.7503869089229914,-inf,0,0.618276920618026,1.083497181031787,-inf,0,0.476712890535393,1.032377872192218,686.996336996337,412.6007326007326,782.4908424908425,806.2637362637363,887.2527472527473,-0.571106,-0.087891,0.826660,4.418793,-4.082336,-1.772003,1,2,4,1,2,95.000000
2021-11-26 23:05:58.794,-inf,0,0.4762402421441981,1.110690167348867,-inf,0,0.1937561013265433,1.024085419381293,-inf,0,0.3761212054550931,0.9651036427257533,-inf,0,0.8494417381278915,1.019831699583546,-inf,0,0.7403839986054115,0.8851541956182626,1021.428571428571,458.1318681318681,767.985347985348,754.6886446886447,1004.102564102564,-0.581726,-0.081604,0.822876,5.435638,-6.960907,-2.437439,1,2,4,1,1,95.000000
2021-11-26 23:05:59.786,-inf,0,0.1939638344226134,1.222104231081056,-inf,0,0.01212261588661861,1.147460536998253,-inf,0,0.2881220996943711,0.6879528807779212,-inf,0,0.7314380172814674,0.9574228141629486,-inf,0,0.6154321609089176,0.8481934162945288,908.2051282051282,827.2161172161173,792.1611721611722,815.5311355311355,693.8461538461538,-0.569946,-0.104126,0.832153,3.140259,-4.695435,-4.007568,1,2,4,1,1,95.000000
2021-11-26 23:06:00.786,-inf,0,0.07679762608444257,1.467397491040461,-inf,0,-0.08290253318730685,0.848080399808411,-inf,0,-0.0308720000686338,0.6628632191201752,-inf,0,0.4765181453336917,0.8264996913326268,-inf,0,0.54272089573763,0.6066875397730462,713.1868131868132,385.2014652014652,803.040293040293,803.040293040293,990.4029304029305,-0.557312,-0.112610,0.827881,4.755249,-4.605713,-1.622467,1,2,4,1,1,95.000000
2021-11-26 23:06:01.558,,,,,,,,,,,,,,,,,,,,,,,,,,,,,,,,,,,,,,/muse/elements/jaw_clench
2021-11-26 23:06:01.787,-inf,0,0.215880779316517,1.425141741323878,-inf,0,-0.2974783900649912,1.004332437035701,-inf,0,-0.05786927529608175,0.7621775002520554,-inf,0,0.4402156981974138,0.8662612882817633,-inf,0,0.5394007938347731,0.6362075761010655,881.2087912087912,788.9377289377289,766.7765567765568,771.6117216117216,821.5750915750916,-0.567932,-0.109314,0.832458,4.687958,-6.587067,-1.428070,1,2,2,1,1,90.000000
2021-11-26 23:06:02.793,-inf,0,0.5156737881109424,1.412358113065004,-inf,0,-0.2889202643460507,0.940406246661901,-inf,0,0.1577679137626157,0.8883707650794622,-inf,0,0.5550455651518827,1.010609292179909,-inf,0,0.4079206101124999,0.6576615033201745,885.6410256410256,930.7692307692308,784.1025641025641,784.9084249084249,703.5164835164835,-0.570618,-0.109253,0.834229,4.239349,-3.327179,-2.422485,1,2,4,1,1,90.000000
2021-11-26 23:06:03.788,-inf,0,0.6854247795759523,1.689300928614399,-inf,0,0.06008679369855707,0.938918305012248,-inf,0,0.2718329103392949,1.201503523838788,-inf,0,0.6424889271578688,1.031729512808014,-inf,0,0.2643879510461756,0.6155894378451151,803.4432234432235,686.1904761904763,785.3113553113553,796.5934065934066,774.8351648351648,-0.552856,-0.083557,0.835693,4.560852,-4.979553,-1.465454,1,2,4,1,1,90.000000
2021-11-26 23:06:04.368,,,,,,,,,,,,,,,,,,,,,,,,,,,,,,,,,,,,,,/muse/elements/blink
2021-11-26 23:06:04.798,-inf,0,1.062191953528309,1.514129005306766,-inf,0,0.5192262808027209,1.141851550909609,-inf,0,0.5194257660001682,1.192041936623882,-inf,0,0.6733184706256082,0.8999203879390808,-inf,0,0.4121995470932905,0.7963443789610534,879.1941391941392,678.5347985347986,780.4761904761905,794.1758241758242,720.8424908424909,-0.568054,-0.090637,0.832397,5.084229,-6.856232,-2.990723,1,2,4,1,1,90.000000
2021-11-26 23:06:05.138,,,,,,,,,,,,,,,,,,,,,,,,,,,,,,,,,,,,,,/muse/elements/blink
2021-11-26 23:06:05.787,-inf,0,1.457105436571572,1.608624681794721,-inf,0,0.9964331667361003,1.200658934968994,-inf,0,0.6081486139222724,1.176366945074308,-inf,0,0.8524424692678061,0.8742157206237413,-inf,0,0.7906194957527353,0.8874748804014291,854.6153846153846,799.4139194139194,780.4761904761905,776.0439560439561,647.5091575091575,-0.563721,-0.096558,0.837524,4.979553,-3.229980,-1.555176,1,1,4,1,1,90.000000
2021-11-26 23:06:06.787,-inf,0,1.174999475674926,1.608624681794721,-inf,0,0.790329401463771,1.200658934968994,-inf,0,0.4508387412213332,1.176366945074308,-inf,0,0.9005812963453875,0.8742157206237413,-inf,0,0.8259747682198805,0.8874748804014291,776.8498168498169,623.3333333333334,761.5384615384615,772.014652014652,710.3663003663004,-0.554810,-0.098145,0.834900,4.493561,-5.031891,-1.435547,1,1,4,1,1,90.000000
2021-11-26 23:06:07.787,-inf,0,0.2225953986383271,1.170200515504955,-inf,0,0.255481755560638,1.032113760447539,-inf,0,0.3977706000341232,0.7232427218942022,-inf,0,0.7139398640921599,0.9845573403198962,-inf,0,0.6170955330311558,0.6712690175846485,724.4688644688645,756.3003663003664,809.4871794871796,808.2783882783883,664.0293040293041,-0.561646,-0.103394,0.834351,4.463654,-6.265564,-2.063599,1,1,4,1,1,90.000000
2021-11-26 23:06:08.795,-inf,0,0.2842663726230898,1.354430990908637,-inf,0,0.01797491056905079,0.938011883298967,-inf,0,0.3747107314887201,0.7843883749775864,-inf,0,0.7269247121960356,0.9824734383486168,-inf,0,0.5625659869906583,0.6233695089779215,807.4725274725275,853.8095238095239,796.1904761904763,803.040293040293,747.4358974358975,-0.558777,-0.101135,0.835510,4.164581,-3.805695,-1.487885,1,1,2,1,1,90.000000
2021-11-26 23:06:09.787,-inf,0,-0.01788460171637441,0.9745033692999188,-inf,0,-0.1921271649323943,0.6573354221162464,-inf,0,0.1898189332863698,0.7272467822770424,-inf,0,0.7179955618917189,0.8591396941104381,-inf,0,0.6197863437736469,0.6653425573720234,790.1465201465202,544.3589743589744,790.952380952381,811.0989010989011,747.4358974358975,-0.554321,-0.100159,0.829285,4.658051,-5.547791,-2.243042,1,1,4,1,1,90.000000
2021-11-26 23:06:10.787,-inf,0,-0.3548850813435168,0.7912627088908529,-inf,0,-0.2287975076315462,0.7247698111869183,-inf,0,0.101545317512846,0.7328996485265479,-inf,0,0.6109460637687494,0.8824403262291446,-inf,0,0.644543066822144,0.7016083817098765,782.893772893773,691.4285714285714,792.967032967033,767.1794871794872,724.0659340659341,-0.571472,-0.101624,0.835938,5.046844,-5.360870,-1.540222,1,1,2,1,1,90.000000
2021-11-26 23:06:11.789,-inf,0,-0.3012275853329033,0.538254371696763,-inf,0,-0.2592596670134217,0.6263640177906813,-inf,0,-0.009218861336117263,0.7720710274706836,-inf,0,0.7220559200343707,0.8371484874717287,-inf,0,0.5025380102472555,0.4307998414625003,818.7545787545788,911.0256410256411,785.7142857142858,781.6849816849817,684.981684981685,-0.564270,-0.100830,0.837585,4.418793,-3.439331,-1.809387,1,1,4,1,1,90.000000
2021-11-26 23:06:12.787,-inf,0,-0.4306336203386001,0.5607118775525138,-inf,0,-0.1887809618696688,0.5485014551983363,-inf,0,0.05265440299939783,0.6122914598426817,-inf,0,0.760281605937196,0.8079493741335024,-inf,0,0.5975289313983702,0.7414990149839643,797.3992673992674,464.981684981685,789.7435897435897,790.952380952381,709.5604395604396,-0.551514,-0.100769,0.839600,4.770203,-5.293579,-1.614990,1,1,4,1,1,95.000000
2021-11-26 23:06:13.445,,,,,,,,,,,,,,,,,,,,,,,,,,,,,,,,,,,,,,/muse/elements/blink
2021-11-26 23:06:13.787,-inf,0,-0.1465802431179733,0.7441985747362821,-inf,0,-0.2030180011354535,0.6200359278255981,-inf,0,0.3480717318605358,0.3609876037617763,-inf,0,0.8119660926512223,1.025435224593119,-inf,0,0.6674333473786105,1.006845294086348,884.0293040293041,778.8644688644689,901.3553113553114,801.4285714285714,745.4212454212454,-0.567810,-0.101135,0.835632,4.725342,-5.809479,-3.835602,1,1,4,1,1,95.000000
2021-11-26 23:06:14.787,-inf,0,0.1170201582406451,0.7486789818601316,-inf,0,-0.04543881985098264,0.6574812331944767,-inf,0,0.3364354449717361,0.3453493126358722,-inf,0,0.8382550733618849,1.093075122995057,-inf,0,0.7054840963908104,1.086664834146942,763.5531135531136,288.9010989010989,794.5787545787546,774.0293040293041,817.948717948718,-0.563721,-0.099304,0.839966,4.127197,-4.493561,-2.153320,1,1,4,1,1,95.000000
2021-11-26 23:06:15.787,-inf,0,0.8452433355005317,0.5946547204362984,-inf,0,-0.1426702441162882,0.385932707970491,-inf,0,0.3479762157258391,1.016119717141055,-inf,0,0.827846859930343,0.9384977510086621,-inf,0,0.2072884183541528,0.5681515181185868,753.8827838827839,573.3699633699634,766.7765567765568,751.4652014652015,698.2783882783883,-0.556519,-0.096252,0.836975,4.575806,-6.041260,-2.295380,1,1,4,1,1,95.000000
2021-11-26 23:06:16.791,-inf,0,-0.01795881164377707,0.5762460232040193,-inf,0,-0.2938019605479626,0.7470980053781465,-inf,0,0.4080426161094607,0.7626899426643824,-inf,0,0.7233786517632028,0.8583366110859709,-inf,0,0.2334964812778268,0.3642098670143296,800.2197802197802,562.0879120879121,792.5641025641025,808.2783882783883,758.7179487179487,-0.564575,-0.097900,0.837341,4.351501,-5.308533,-1.271057,1,1,2,1,1,95.000000
2021-11-26 23:06:17.572,,,,,,,,,,,,,,,,,,,,,,,,,,,,,,,,,,,,,,/muse/elements/blink
2021-11-26 23:06:17.770,,,,,,,,,,,,,,,,,,,,,,,,,,,,,,,,,,,,,,/muse/elements/jaw_clench
2021-11-26 23:06:17.787,-inf,0,0.4062963389215854,0.8411772439332315,-inf,0,0.101530158729401,0.6334820636039259,-inf,0,0.334682816105132,0.6152755055826864,-inf,0,0.7545144364653109,1.001684318643947,-inf,0,0.5416194035351507,0.4767006050159758,872.7472527472528,968.2417582417582,1559.340659340659,788.1318681318681,650.3296703296703,-0.554504,-0.098816,0.834106,4.545898,-3.783264,2.766418,1,1,4,1,1,95.000000
2021-11-26 23:06:18.096,,,,,,,,,,,,,,,,,,,,,,,,,,,,,,,,,,,,,,/muse/elements/jaw_clench
2021-11-26 23:06:18.206,,,,,,,,,,,,,,,,,,,,,,,,,,,,,,,,,,,,,,/muse/elements/blink
2021-11-26 23:06:18.786,-inf,0,0.7389152088030237,1.140772667253763,-inf,0,0.3047156145121377,0.4778848488520292,-inf,0,0.3233824553500896,0.5405305285813308,-inf,0,0.7122789540001769,0.8917522574660562,-inf,0,0.631782053973874,0.5727694885056582,918.2783882783883,301.7948717948718,909.4139194139194,842.1245421245421,1093.553113553114,-0.546936,0.033569,0.846802,5.383301,-7.222595,-6.228180,1,1,2,1,1,95.000000
2021-11-26 23:06:19.600,,,,,,,,,,,,,,,,,,,,,,,,,,,,,,,,,,,,,,/muse/elements/jaw_clench
2021-11-26 23:06:19.787,-inf,0,0.7389152088030237,1.140772667253763,-inf,0,0.3047156145121377,0.4778848488520292,-inf,0,0.3233824553500896,0.5405305285813308,-inf,0,0.7122789540001769,0.8917522574660562,-inf,0,0.631782053973874,0.5727694885056582,504.8717948717949,779.2673992673992,769.1941391941392,957.7655677655678,780.8791208791209,-0.579590,0.042969,0.858093,4.568329,-2.003784,-8.755341,1,4,4,1,1,95.000000
2021-11-26 23:06:20.034,,,,,,,,,,,,,,,,,,,,,,,,,,,,,,,,,,,,,,/muse/elements/blink
2021-11-26 23:06:20.034,,,,,,,,,,,,,,,,,,,,,,,,,,,,,,,,,,,,,,/muse/elements/jaw_clench
2021-11-26 23:06:20.735,,,,,,,,,,,,,,,,,,,,,,,,,,,,,,,,,,,,,,/muse/elements/blink
2021-11-26 23:06:20.787,-inf,0,0.7389152088030237,1.140772667253763,-inf,0,0.3047156145121377,0.4778848488520292,-inf,0,0.3233824553500896,0.5405305285813308,-inf,0,0.7122789540001769,0.8917522574660562,-inf,0,0.631782053973874,0.5727694885056582,1169.70695970696,0,628.1684981684982,1031.098901098901,413.8095238095238,-0.592163,-0.002991,0.801208,-0.142059,-17.607880,19.708862,1,4,4,1,2,95.000000
2021-11-26 23:06:21.255,,,,,,,,,,,,,,,,,,,,,,,,,,,,,,,,,,,,,,/muse/elements/blink
2021-11-26 23:06:21.582,,,,,,,,,,,,,,,,,,,,,,,,,,,,,,,,,,,,,,/muse/elements/blink
2021-11-26 23:06:21.786,-inf,0,0.7389152088030237,1.140772667253763,-inf,0,0.3047156145121377,0.4778848488520292,-inf,0,0.3233824553500896,0.5405305285813308,-inf,0,0.7122789540001769,0.8917522574660562,-inf,0,0.631782053973874,0.5727694885056582,1060.915750915751,820.3663003663004,778.4615384615385,848.974358974359,844.5421245421246,-0.625610,-0.027100,0.878113,3.469238,-3.686066,-12.860107,1,4,4,1,2,95.000000
2021-11-26 23:06:22.193,,,,,,,,,,,,,,,,,,,,,,,,,,,,,,,,,,,,,,/muse/elements/blink
2021-11-26 23:06:22.369,,,,,,,,,,,,,,,,,,,,,,,,,,,,,,,,,,,,,,/muse/elements/blink
2021-11-26 23:06:22.655,,,,,,,,,,,,,,,,,,,,,,,,,,,,,,,,,,,,,,/muse/elements/jaw_clench
2021-11-26 23:06:22.786,-inf,0,0.7389152088030237,1.140772667253763,-inf,0,0.3047156145121377,0.4778848488520292,-inf,0,0.3233824553500896,0.5405305285813308,-inf,0,0.7122789540001769,0.8917522574660562,-inf,0,0.631782053973874,0.5727694885056582,607.2161172161173,1510.18315018315,759.92673992674,789.7435897435897,664.0293040293041,-0.745178,-0.072876,0.842224,5.338440,3.117828,-1.338348,1,4,4,1,2,90.000000
2021-11-26 23:06:22.874,,,,,,,,,,,,,,,,,,,,,,,,,,,,,,,,,,,,,,/muse/elements/blink
2021-11-26 23:06:23.248,,,,,,,,,,,,,,,,,,,,,,,,,,,,,,,,,,,,,,/muse/elements/blink
2021-11-26 23:06:23.248,,,,,,,,,,,,,,,,,,,,,,,,,,,,,,,,,,,,,,/muse/elements/jaw_clench
2021-11-26 23:06:23.786,-inf,0,1.700737478540695,1.140772667253763,-inf,0,0.9039594370264077,0.4778848488520292,-inf,0,0.6842897716055292,0.5405305285813308,-inf,0,0.3148899209317138,0.8917522574660562,-inf,0,-0.104716884830261,0.5727694885056582,0,930.3663003663004,761.5384615384615,821.978021978022,639.4505494505495,-0.591553,-0.080505,0.819702,8.246918,-9.749756,-5.914154,1,2,4,1,2,90.000000
2021-11-26 23:06:23.995,,,,,,,,,,,,,,,,,,,,,,,,,,,,,,,,,,,,,,/muse/elements/jaw_clench
2021-11-26 23:06:24.786,-inf,0,1.765963749029267,1.140772667253763,-inf,0,0.8188383315300202,0.4778848488520292,-inf,0,0.6519866768031783,0.5405305285813308,-inf,0,0.1653883964877164,0.8917522574660562,-inf,0,-0.0927496466347736,0.5727694885056582,1541.208791208791,402.1245421245421,746.6300366300367,872.3443223443223,770.4029304029305,-0.569641,-0.053040,0.818665,6.018829,-6.886139,6.534729,1,2,4,1,2,90.000000
2021-11-26 23:06:25.090,,,,,,,,,,,,,,,,,,,,,,,,,,,,,,,,,,,,,,/muse/elements/jaw_clench
2021-11-26 23:06:25.598,,,,,,,,,,,,,,,,,,,,,,,,,,,,,,,,,,,,,,/muse/elements/jaw_clench
2021-11-26 23:06:25.788,-inf,0,1.500943437032767,1.140772667253763,-inf,0,0.520468656792306,0.4778848488520292,-inf,0,0.3299123252782914,0.5405305285813308,-inf,0,0.1906294722431658,0.8917522574660562,-inf,0,-0.02397308260462348,0.5727694885056582,1036.739926739927,634.2124542124542,763.956043956044,828.4249084249085,831.6483516483516,-0.594971,-0.046082,0.830444,4.134674,-3.058014,-0.725250,1,4,4,1,2,90.000000
2021-11-26 23:06:26.786,-inf,0,0.7513694473162568,1.506850057881207,-inf,0,0.2676798025929003,0.7797669618190368,-inf,0,0.3906954139283239,0.8606808313346737,-inf,0,0.4230625809019573,0.9873460046122501,-inf,0,0.2008132552121875,0.6098527822049914,1100.805860805861,0,784.9084249084249,666.8498168498169,691.4285714285714,-0.554199,-0.027954,0.813904,6.856232,10.691833,6.579590,1,4,4,1,1,90.000000
2021-11-26 23:06:27.051,,,,,,,,,,,,,,,,,,,,,,,,,,,,,,,,,,,,,,/muse/elements/blink
2021-11-26 23:06:27.432,,,,,,,,,,,,,,,,,,,,,,,,,,,,,,,,,,,,,,/muse/elements/blink
2021-11-26 23:06:27.786,-inf,0,0.9360514298817889,1.48096071085473,-inf,0,0.4831013547951035,0.7941042201912651,-inf,0,0.3941938974652425,0.752912473278208,-inf,0,0.7966453070243813,1.000007219006682,-inf,0,0.6733554879546244,0.6650898688424991,1455.787545787546,355.3846153846154,769.1941391941392,946.4835164835165,756.7032967032967,-0.608704,0.009338,0.809021,5.076752,-9.869385,-5.794525,1,4,4,1,1,90.000000
2021-11-26 23:06:28.553,,,,,,,,,,,,,,,,,,,,,,,,,,,,,,,,,,,,,,/muse/elements/jaw_clench
2021-11-26 23:06:28.786,-inf,0,0.7416361527115851,1.48096071085473,-inf,0,0.2085438919617036,0.7941042201912651,-inf,0,0.4396291534919177,0.752912473278208,-inf,0,0.6622122894699789,1.000007219006682,-inf,0,0.6926818567597968,0.6650898688424991,272.3809523809524,1272.454212454212,793.7728937728938,922.3076923076924,701.0989010989011,-0.631104,0.016052,0.793152,3.297272,0.882263,-1.585083,1,4,4,1,1,90.000000
2021-11-26 23:06:28.884,,,,,,,,,,,,,,,,,,,,,,,,,,,,,,,,,,,,,,/muse/elements/blink
2021-11-26 23:06:28.884,,,,,,,,,,,,,,,,,,,,,,,,,,,,,,,,,,,,,,/muse/elements/jaw_clench
2021-11-26 23:06:29.172,,,,,,,,,,,,,,,,,,,,,,,,,,,,,,,,,,,,,,/muse/elements/jaw_clench
2021-11-26 23:06:29.481,,,,,,,,,,,,,,,,,,,,,,,,,,,,,,,,,,,,,,/muse/elements/blink
2021-11-26 23:06:29.481,,,,,,,,,,,,,,,,,,,,,,,,,,,,,,,,,,,,,,/muse/elements/jaw_clench
2021-11-26 23:06:29.786,-inf,0,0.6967685231064421,1.48096071085473,-inf,0,0.083042762774115,0.7941042201912651,-inf,0,0.3704405059636122,0.752912473278208,-inf,0,0.5982724034828459,1.000007219006682,-inf,0,0.4681790199184057,0.6650898688424991,1623.406593406593,1623.809523809524,1615.750915750916,0,0,-1.035889,0.085632,0.720215,-3.843079,26.318359,35.290527,1,4,4,1,2,90.000000
2021-11-26 23:06:29.962,,,,,,,,,,,,,,,,,,,,,,,,,,,,,,,,,,,,,,/muse/elements/blink
2021-11-26 23:06:30.487,,,,,,,,,,,,,,,,,,,,,,,,,,,,,,,,,,,,,,/muse/elements/blink
2021-11-26 23:06:30.786,-inf,0,1.011676267415043,1.48096071085473,-inf,0,0.1870276958629979,0.7941042201912651,-inf,0,0.1690641333704541,0.752912473278208,-inf,0,0.6716548848947697,1.000007219006682,-inf,0,0.5315132189567995,0.6650898688424991,0,1623.809523809524,721.2454212454213,718.4249084249085,864.6886446886447,-0.733704,-0.008911,0.788269,3.917847,-27.275391,1.876678,1,4,4,1,4,90.000000
2021-11-26 23:06:30.794,,,,,,,,,,,,,,,,,,,,,,,,,,,,,,,,,,,,,,/muse/elements/blink
2021-11-26 23:06:30.993,,,,,,,,,,,,,,,,,,,,,,,,,,,,,,,,,,,,,,/muse/elements/blink
2021-11-26 23:06:31.103,,,,,,,,,,,,,,,,,,,,,,,,,,,,,,,,,,,,,,/muse/elements/jaw_clench
2021-11-26 23:06:31.712,,,,,,,,,,,,,,,,,,,,,,,,,,,,,,,,,,,,,,/muse/elements/blink
2021-11-26 23:06:31.791,-inf,0,1.011676267415043,1.48096071085473,-inf,0,0.1870276958629979,0.7941042201912651,-inf,0,0.1690641333704541,0.752912473278208,-inf,0,0.6716548848947697,1.000007219006682,-inf,0,0.5315132189567995,0.6650898688424991,1579.084249084249,716.4102564102565,720.4395604395604,917.0695970695971,830.8424908424909,-0.487244,-0.033447,0.806396,3.446808,3.551483,-5.869293,1,4,4,1,2,90.000000
2021-11-26 23:06:32.539,,,,,,,,,,,,,,,,,,,,,,,,,,,,,,,,,,,,,,/muse/elements/blink
2021-11-26 23:06:32.794,-inf,0,1.011676267415043,1.48096071085473,-inf,0,0.1870276958629979,0.7941042201912651,-inf,0,0.1690641333704541,0.752912473278208,-inf,0,0.6716548848947697,1.000007219006682,-inf,0,0.5315132189567995,0.6650898688424991,0,0,731.3186813186813,774.8351648351648,719.2307692307693,-0.499329,0.027832,0.805603,1.435547,22.535095,4.545898,1,4,4,1,2,85.000000
2021-11-26 23:06:32.913,,,,,,,,,,,,,,,,,,,,,,,,,,,,,,,,,,,,,,/muse/elements/blink
2021-11-26 23:06:33.785,-inf,0,1.011676267415043,1.48096071085473,-inf,0,0.1870276958629979,0.7941042201912651,-inf,0,0.1690641333704541,0.752912473278208,-inf,0,0.6716548848947697,1.000007219006682,-inf,0,0.5315132189567995,0.6650898688424991,1550.879120879121,388.021978021978,1047.619047619048,830.8424908424909,708.7545787545788,-0.654053,0.111694,0.797668,5.996399,-3.671112,0.785065,1,4,4,1,2,85.000000
2021-11-26 23:06:33.851,,,,,,,,,,,,,,,,,,,,,,,,,,,,,,,,,,,,,,/muse/elements/jaw_clench
2021-11-26 23:06:34.459,,,,,,,,,,,,,,,,,,,,,,,,,,,,,,,,,,,,,,/muse/elements/blink
2021-11-26 23:06:34.745,,,,,,,,,,,,,,,,,,,,,,,,,,,,,,,,,,,,,,/muse/elements/blink
2021-11-26 23:06:34.786,-inf,0,1.011676267415043,1.48096071085473,-inf,0,0.1870276958629979,0.7941042201912651,-inf,0,0.1690641333704541,0.752912473278208,-inf,0,0.6716548848947697,1.000007219006682,-inf,0,0.5315132189567995,0.6650898688424991,1339.74358974359,680.5494505494506,1020.21978021978,838.4981684981685,545.9706959706959,-0.655212,0.078308,0.733276,18.138733,-1.069183,-10.347900,1,4,4,2,2,85.000000
2021-11-26 23:06:35.250,,,,,,,,,,,,,,,,,,,,,,,,,,,,,,,,,,,,,,/muse/elements/blink
2021-11-26 23:06:35.449,,,,,,,,,,,,,,,,,,,,,,,,,,,,,,,,,,,,,,/muse/elements/blink
2021-11-26 23:06:35.580,,,,,,,,,,,,,,,,,,,,,,,,,,,,,,,,,,,,,,/muse/elements/jaw_clench
2021-11-26 23:06:35.691,,,,,,,,,,,,,,,,,,,,,,,,,,,,,,,,,,,,,,/muse/elements/blink
2021-11-26 23:06:35.792,-inf,0,1.011676267415043,1.48096071085473,-inf,0,0.1870276958629979,0.7941042201912651,-inf,0,0.1690641333704541,0.752912473278208,-inf,0,0.6716548848947697,1.000007219006682,-inf,0,0.5315132189567995,0.6650898688424991,489.96336996337,0,718.4249084249085,601.1721611721612,916.2637362637363,-0.591614,0.021667,0.779297,-0.665436,-10.430145,-1.158905,1,4,2,2,2,85.000000
2021-11-26 23:06:35.955,,,,,,,,,,,,,,,,,,,,,,,,,,,,,,,,,,,,,,/muse/elements/blink
2021-11-26 23:06:36.653,,,,,,,,,,,,,,,,,,,,,,,,,,,,,,,,,,,,,,/muse/elements/blink
2021-11-26 23:06:36.794,-inf,0,1.011676267415043,1.48096071085473,-inf,0,0.1870276958629979,0.7941042201912651,-inf,0,0.1690641333704541,0.752912473278208,-inf,0,0.6716548848947697,1.000007219006682,-inf,0,0.5315132189567995,0.6650898688424991,1270.842490842491,780.4761904761905,731.3186813186813,594.7252747252747,757.5091575091575,-0.628479,0.104614,0.825073,4.224396,-7.110443,0.433655,1,4,1,1,2,85.000000
2021-11-26 23:06:36.983,,,,,,,,,,,,,,,,,,,,,,,,,,,,,,,,,,,,,,/muse/elements/blink
2021-11-26 23:06:37.420,,,,,,,,,,,,,,,,,,,,,,,,,,,,,,,,,,,,,,/muse/elements/blink
2021-11-26 23:06:37.597,,,,,,,,,,,,,,,,,,,,,,,,,,,,,,,,,,,,,,/muse/elements/jaw_clench
2021-11-26 23:06:37.708,,,,,,,,,,,,,,,,,,,,,,,,,,,,,,,,,,,,,,/muse/elements/blink
2021-11-26 23:06:37.787,-inf,0,1.011676267415043,1.48096071085473,-inf,0,0.1870276958629979,0.7941042201912651,-inf,0,0.1690641333704541,0.752912473278208,-inf,0,0.6716548848947697,1.000007219006682,-inf,0,0.5315132189567995,0.6650898688424991,1228.131868131868,1626.227106227106,685.3846153846154,896.5201465201466,652.3443223443223,-0.602905,0.188110,0.827332,13.420868,-2.340240,-19.940643,1,4,2,1,2,85.000000
2021-11-26 23:06:38.213,,,,,,,,,,,,,,,,,,,,,,,,,,,,,,,,,,,,,,/muse/elements/blink
2021-11-26 23:06:38.791,-inf,0,1.011676267415043,1.48096071085473,-inf,0,0.1870276958629979,0.7941042201912651,-inf,0,0.1690641333704541,0.752912473278208,-inf,0,0.6716548848947697,1.000007219006682,-inf,0,0.5315132189567995,0.6650898688424991,871.941391941392,0,655.5677655677656,907.3992673992674,783.6996336996338,-0.643433,0.189514,0.759705,5.181427,-0.583191,1.689758,1,4,4,1,2,85.000000
2021-11-26 23:06:38.916,,,,,,,,,,,,,,,,,,,,,,,,,,,,,,,,,,,,,,/muse/elements/blink
2021-11-26 23:06:39.332,,,,,,,,,,,,,,,,,,,,,,,,,,,,,,,,,,,,,,/muse/elements/blink
2021-11-26 23:06:39.786,-inf,0,1.011676267415043,1.48096071085473,-inf,0,0.1870276958629979,0.7941042201912651,-inf,0,0.1690641333704541,0.752912473278208,-inf,0,0.6716548848947697,1.000007219006682,-inf,0,0.5315132189567995,0.6650898688424991,1501.721611721612,0,887.2527472527473,963.4065934065934,880,-0.684082,0.182007,0.756775,3.379517,-24.426727,-6.923523,1,4,4,1,2,85.000000
2021-11-26 23:06:39.837,,,,,,,,,,,,,,,,,,,,,,,,,,,,,,,,,,,,,,/muse/elements/blink
2021-11-26 23:06:40.123,,,,,,,,,,,,,,,,,,,,,,,,,,,,,,,,,,,,,,/muse/elements/blink
2021-11-26 23:06:40.451,,,,,,,,,,,,,,,,,,,,,,,,,,,,,,,,,,,,,,/muse/elements/blink
2021-11-26 23:06:40.738,,,,,,,,,,,,,,,,,,,,,,,,,,,,,,,,,,,,,,/muse/elements/blink
2021-11-26 23:06:40.791,-inf,0,1.011676267415043,1.48096071085473,-inf,0,0.1870276958629979,0.7941042201912651,-inf,0,0.1690641333704541,0.752912473278208,-inf,0,0.6716548848947697,1.000007219006682,-inf,0,0.5315132189567995,0.6650898688424991,648.7179487179487,670.8791208791209,777.2527472527473,857.032967032967,629.3772893772893,-0.567200,0.086121,0.784912,10.041351,-1.614990,-8.688049,1,2,4,2,2,85.000000
2021-11-26 23:06:41.680,,,,,,,,,,,,,,,,,,,,,,,,,,,,,,,,,,,,,,/muse/elements/jaw_clench
2021-11-26 23:06:41.786,-inf,0,1.011676267415043,1.48096071085473,-inf,0,0.1870276958629979,0.7941042201912651,-inf,0,0.1690641333704541,0.752912473278208,-inf,0,0.6716548848947697,1.000007219006682,-inf,0,0.5315132189567995,0.6650898688424991,1061.721611721612,124.9084249084249,797.3992673992674,755.4945054945055,718.8278388278388,-0.579224,0.015503,0.798645,8.620758,-15.185394,-5.592651,1,4,4,1,2,85.000000
2021-11-26 23:06:41.856,,,,,,,,,,,,,,,,,,,,,,,,,,,,,,,,,,,,,,/muse/elements/jaw_clench
2021-11-26 23:06:42.386,,,,,,,,,,,,,,,,,,,,,,,,,,,,,,,,,,,,,,/muse/elements/jaw_clench
2021-11-26 23:06:42.476,,,,,,,,,,,,,,,,,,,,,,,,,,,,,,,,,,,,,,/muse/elements/blink
2021-11-26 23:06:42.793,-inf,0,1.298222775503381,1.48096071085473,-inf,0,0.9132357508320412,0.7941042201912651,-inf,0,0.6411456325507343,0.752912473278208,-inf,0,0.8249626758974695,1.000007219006682,-inf,0,0.8681356492553648,0.6650898688424991,889.6703296703297,316.7032967032967,797.3992673992674,819.5604395604396,684.1758241758242,-0.616394,0.026733,0.806091,3.506622,-10.953522,-1.345825,1,2,4,1,2,85.000000
2021-11-26 23:06:42.893,,,,,,,,,,,,,,,,,,,,,,,,,,,,,,,,,,,,,,/muse/elements/blink
2021-11-26 23:06:43.786,-inf,0,1.26540218822453,1.48096071085473,-inf,0,0.8114765675684349,0.7941042201912651,-inf,0,0.4201375857316916,0.752912473278208,-inf,0,0.7469766868743181,1.000007219006682,-inf,0,0.7823664875342532,0.6650898688424991,1086.300366300366,305.8241758241758,788.9377289377289,870.3296703296703,719.6336996336996,-0.583679,0.095093,0.819214,9.398346,-15.155487,-4.493561,1,2,4,1,2,85.000000
2021-11-26 23:06:44.217,,,,,,,,,,,,,,,,,,,,,,,,,,,,,,,,,,,,,,/muse/elements/jaw_clench
2021-11-26 23:06:44.484,,,,,,,,,,,,,,,,,,,,,,,,,,,,,,,,,,,,,,/muse/elements/blink
2021-11-26 23:06:44.786,-inf,0,1.007207256618496,1.48096071085473,-inf,0,0.4505984892905012,0.7941042201912651,-inf,0,0.3896666733148706,0.752912473278208,-inf,0,0.7284688735024282,1.000007219006682,-inf,0,0.6415195445060965,0.6650898688424991,836.0805860805862,1006.520146520147,768.7912087912088,921.5018315018315,853.4065934065934,-0.565613,0.032104,0.837952,4.179535,-5.211334,-6.228180,1,2,4,1,2,85.000000
2021-11-26 23:06:45.786,-inf,0,0.9917141881491505,1.48096071085473,-inf,0,0.6303937622308237,0.7941042201912651,-inf,0,0.6802945219269025,0.752912473278208,-inf,0,0.8416382578329868,1.000007219006682,-inf,0,0.7476096117631458,0.6650898688424991,709.9633699633699,0,796.996336996337,888.4615384615385,656.7765567765568,-0.603882,0.057129,0.815552,2.886047,-14.893799,-11.372223,1,2,4,1,2,85.000000
2021-11-26 23:06:45.803,,,,,,,,,,,,,,,,,,,,,,,,,,,,,,,,,,,,,,/muse/elements/blink
2021-11-26 23:06:45.935,,,,,,,,,,,,,,,,,,,,,,,,,,,,,,,,,,,,,,/muse/elements/jaw_clench
2021-11-26 23:06:46.223,,,,,,,,,,,,,,,,,,,,,,,,,,,,,,,,,,,,,,/muse/elements/jaw_clench
2021-11-26 23:06:46.750,,,,,,,,,,,,,,,,,,,,,,,,,,,,,,,,,,,,,,/muse/elements/blink
2021-11-26 23:06:46.786,-inf,0,1.073997611731428,1.48096071085473,-inf,0,0.3506966282599987,0.7941042201912651,-inf,0,0.5934349697388752,0.752912473278208,-inf,0,0.904114391065082,1.000007219006682,-inf,0,0.8883340876902684,0.6650898688424991,1457.802197802198,64.06593406593407,798.6080586080586,897.3260073260074,693.4432234432235,-0.642029,0.020142,0.737244,3.715973,-17.533112,-21.682739,1,4,4,1,2,85.000000
2021-11-26 23:06:46.928,,,,,,,,,,,,,,,,,,,,,,,,,,,,,,,,,,,,,,/muse/elements/jaw_clench
2021-11-26 23:06:47.169,,,,,,,,,,,,,,,,,,,,,,,,,,,,,,,,,,,,,,/muse/elements/blink
2021-11-26 23:06:47.628,,,,,,,,,,,,,,,,,,,,,,,,,,,,,,,,,,,,,,/muse/elements/blink
2021-11-26 23:06:47.789,-inf,0,1.18590393303043,1.48096071085473,-inf,0,0.2584852680203787,0.7941042201912651,-inf,0,0.2430741640763633,0.752912473278208,-inf,0,0.8160990553370823,1.000007219006682,-inf,0,0.6482106431622718,0.6650898688424991,974.6886446886447,392.051282051282,787.7289377289378,865.0915750915751,1159.6336996337,-0.587402,0.040161,0.784119,5.158997,-6.998291,-1.158905,1,4,4,1,2,85.000000
2021-11-26 23:06:47.956,,,,,,,,,,,,,,,,,,,,,,,,,,,,,,,,,,,,,,/muse/elements/jaw_clench
2021-11-26 23:06:48.046,,,,,,,,,,,,,,,,,,,,,,,,,,,,,,,,,,,,,,/muse/elements/blink
2021-11-26 23:06:48.245,,,,,,,,,,,,,,,,,,,,,,,,,,,,,,,,,,,,,,/muse/elements/jaw_clench
2021-11-26 23:06:48.487,,,,,,,,,,,,,,,,,,,,,,,,,,,,,,,,,,,,,,/muse/elements/jaw_clench
2021-11-26 23:06:48.786,-inf,0,0.7016111573670766,1.48096071085473,-inf,0,0.5505667128858326,0.7941042201912651,-inf,0,0.4328064769261454,0.752912473278208,-inf,0,0.5878746518796838,1.000007219006682,-inf,0,0.2869315632972144,0.6650898688424991,940.8424908424909,759.92673992674,773.2234432234433,813.919413919414,786.1172161172161,-0.669128,0.061218,0.767761,8.194580,-10.789032,-11.289978,1,2,4,1,2,85.000000
2021-11-26 23:06:49.172,,,,,,,,,,,,,,,,,,,,,,,,,,,,,,,,,,,,,,/muse/elements/jaw_clench
2021-11-26 23:06:49.586,,,,,,,,,,,,,,,,,,,,,,,,,,,,,,,,,,,,,,/muse/elements/blink
2021-11-26 23:06:49.795,-inf,0,0.8211034005652007,1.48096071085473,-inf,0,0.4111277429856396,0.7941042201912651,-inf,0,0.5117980447940286,0.752912473278208,-inf,0,0.5808748294700892,1.000007219006682,-inf,0,0.3365627497620642,0.6650898688424991,740.5860805860806,1633.479853479854,759.5238095238095,705.934065934066,801.8315018315019,-0.677063,0.039368,0.769348,10.975952,0.568237,0.770111,1,2,4,1,2,85.000000
2021-11-26 23:06:49.982,,,,,,,,,,,,,,,,,,,,,,,,,,,,,,,,,,,,,,/muse/elements/blink
2021-11-26 23:06:50.094,,,,,,,,,,,,,,,,,,,,,,,,,,,,,,,,,,,,,,/muse/elements/jaw_clench
2021-11-26 23:06:50.785,-inf,0,1.330849710518335,1.48096071085473,-inf,0,0.578404061614421,0.7941042201912651,-inf,0,0.587199205557649,0.752912473278208,-inf,0,0.5963236712914374,1.000007219006682,-inf,0,0.2670620119199167,0.6650898688424991,709.5604395604396,680.952380952381,788.1318681318681,746.2271062271062,763.1501831501831,-0.635193,0.011841,0.794861,9.944153,-5.697327,-7.035675,1,4,4,1,2,85.000000
2021-11-26 23:06:51.786,-inf,0,1.185644925191925,1.48096071085473,-inf,0,0.2883078360611568,0.7941042201912651,-inf,0,0.531591944260889,0.752912473278208,-inf,0,0.5848601530711889,1.000007219006682,-inf,0,0.286350939636054,0.6650898688424991,900.952380952381,572.967032967033,787.7289377289378,846.959706959707,722.4542124542124,-0.603271,-0.024719,0.801941,4.545898,-7.902985,-2.377625,1,2,4,1,2,85.000000
2021-11-26 23:06:52.417,,,,,,,,,,,,,,,,,,,,,,,,,,,,,,,,,,,,,,/muse/elements/blink
2021-11-26 23:06:52.417,,,,,,,,,,,,,,,,,,,,,,,,,,,,,,,,,,,,,,/muse/elements/jaw_clench
2021-11-26 23:06:52.751,,,,,,,,,,,,,,,,,,,,,,,,,,,,,,,,,,,,,,/muse/elements/blink
2021-11-26 23:06:52.785,-inf,0,0.5977169145030827,1.48096071085473,-inf,0,0.1519498054703036,0.7941042201912651,-inf,0,0.02766773051131715,0.752912473278208,-inf,0,0.501804531817831,1.000007219006682,-inf,0,0.1976380788040268,0.6650898688424991,910.2197802197802,415.4212454212454,657.1794871794872,477.0695970695971,645.8974358974359,-0.746765,-0.019775,0.664429,3.940277,-2.594452,-1.435547,1,2,4,1,2,85.000000
2021-11-26 23:06:53.015,,,,,,,,,,,,,,,,,,,,,,,,,,,,,,,,,,,,,,/muse/elements/blink
2021-11-26 23:06:53.453,,,,,,,,,,,,,,,,,,,,,,,,,,,,,,,,,,,,,,/muse/elements/blink
2021-11-26 23:06:53.788,-inf,0,0.2923870659749482,1.48096071085473,-inf,0,0.1438990937703097,0.7941042201912651,-inf,0,-0.1869070879854512,0.752912473278208,-inf,0,0.4832380861983642,1.000007219006682,-inf,0,0.121887806259667,0.6650898688424991,861.8681318681319,596.3369963369963,737.3626373626374,846.5567765567765,775.6410256410256,-0.721558,-0.003296,0.744202,6.355286,-10.729218,-0.351410,1,2,4,1,2,90.000000
2021-11-26 23:06:54.671,,,,,,,,,,,,,,,,,,,,,,,,,,,,,,,,,,,,,,/muse/elements/blink
2021-11-26 23:06:54.671,,,,,,,,,,,,,,,,,,,,,,,,,,,,,,,,,,,,,,/muse/elements/jaw_clench
2021-11-26 23:06:54.785,-inf,0,0.2923870659749482,1.48096071085473,-inf,0,0.1438990937703097,0.7941042201912651,-inf,0,-0.1869070879854512,0.752912473278208,-inf,0,0.4832380861983642,1.000007219006682,-inf,0,0.121887806259667,0.6650898688424991,0,0,825.6043956043957,512.1245421245421,708.3516483516484,-0.746948,0.003052,0.711792,5.682373,-7.895508,-4.336548,1,4,2,1,2,90.000000
2021-11-26 23:06:54.956,,,,,,,,,,,,,,,,,,,,,,,,,,,,,,,,,,,,,,/muse/elements/blink
2021-11-26 23:06:55.545,,,,,,,,,,,,,,,,,,,,,,,,,,,,,,,,,,,,,,/muse/elements/jaw_clench
2021-11-26 23:06:55.698,,,,,,,,,,,,,,,,,,,,,,,,,,,,,,,,,,,,,,/muse/elements/blink
2021-11-26 23:06:55.795,-inf,0,0.2923870659749482,1.48096071085473,-inf,0,0.1438990937703097,0.7941042201912651,-inf,0,-0.1869070879854512,0.752912473278208,-inf,0,0.4832380861983642,1.000007219006682,-inf,0,0.121887806259667,0.6650898688424991,24.17582417582418,0,702.7106227106227,374.3223443223443,0,-0.681091,0.015381,0.688660,-1.353302,-0.859833,-5.921631,1,4,4,2,4,90.000000
2021-11-26 23:06:56.070,,,,,,,,,,,,,,,,,,,,,,,,,,,,,,,,,,,,,,/muse/elements/blink
2021-11-26 23:06:56.785,,,,,,,,,,,,,,,,,,,,,,,,,,,,,,,,,,,,,,/muse/elements/blink
2021-11-26 23:06:56.795,-inf,0,0.2923870659749482,1.48096071085473,-inf,0,0.1438990937703097,0.7941042201912651,-inf,0,-0.1869070879854512,0.752912473278208,-inf,0,0.4832380861983642,1.000007219006682,-inf,0,0.121887806259667,0.6650898688424991,0,0,794.5787545787546,248.2051282051282,193.003663003663,-0.689636,0.017761,0.711548,4.291687,-11.103058,-3.544006,1,4,1,1,4,90.000000
2021-11-26 23:06:57.202,,,,,,,,,,,,,,,,,,,,,,,,,,,,,,,,,,,,,,/muse/elements/blink
2021-11-26 23:06:57.202,,,,,,,,,,,,,,,,,,,,,,,,,,,,,,,,,,,,,,/muse/elements/jaw_clench
2021-11-26 23:06:57.620,,,,,,,,,,,,,,,,,,,,,,,,,,,,,,,,,,,,,,/muse/elements/blink
2021-11-26 23:06:57.786,-inf,0,0.9108433863507915,1.48096071085473,-inf,0,0.2698695232508663,0.7941042201912651,-inf,0,0.1666563621889076,0.752912473278208,-inf,0,0.2883581768670579,1.000007219006682,-inf,0,0.03299178994442525,0.6650898688424991,1351.831501831502,0,786.9230769230769,656.7765567765568,786.9230769230769,-0.678650,0.039307,0.733215,4.486084,-5.256195,4.142151,1,4,2,1,4,90.000000
2021-11-26 23:06:58.128,,,,,,,,,,,,,,,,,,,,,,,,,,,,,,,,,,,,,,/muse/elements/blink
2021-11-26 23:06:58.786,-inf,0,0.5381745277553058,1.48096071085473,-inf,0,-0.2204148618066648,0.7941042201912651,-inf,0,0.07357464822054537,0.752912473278208,-inf,0,0.2692813252317122,1.000007219006682,-inf,0,0.04844324193572933,0.6650898688424991,657.5824175824176,558.8644688644689,797.8021978021978,764.3589743589744,828.021978021978,-0.703003,0.028076,0.736877,4.904785,-4.074860,-3.783264,1,2,2,1,2,90.000000
2021-11-26 23:06:59.785,-inf,0,0.009433637709686629,1.48096071085473,-inf,0,-0.1629057163205289,0.7941042201912651,-inf,0,0.2621914631268212,0.752912473278208,-inf,0,0.4774908961121385,1.000007219006682,-inf,0,0.1353390545047533,0.6650898688424991,996.8498168498169,512.5274725274726,783.6996336996338,714.3956043956044,811.0989010989011,-0.715271,0.019287,0.714111,7.102966,1.300964,-2.863617,1,2,2,1,2,90.000000
2021-11-26 23:06:59.818,,,,,,,,,,,,,,,,,,,,,,,,,,,,,,,,,,,,,,/muse/elements/blink
2021-11-26 23:07:00.144,,,,,,,,,,,,,,,,,,,,,,,,,,,,,,,,,,,,,,/muse/elements/jaw_clench
2021-11-26 23:07:00.342,,,,,,,,,,,,,,,,,,,,,,,,,,,,,,,,,,,,,,/muse/elements/blink
2021-11-26 23:07:00.563,,,,,,,,,,,,,,,,,,,,,,,,,,,,,,,,,,,,,,/muse/elements/jaw_clench
2021-11-26 23:07:00.762,,,,,,,,,,,,,,,,,,,,,,,,,,,,,,,,,,,,,,/muse/elements/jaw_clench
2021-11-26 23:07:00.786,-inf,0,1.508878965955824,1.48096071085473,-inf,0,0.3416737258614407,0.7941042201912651,-inf,0,0.8735276265178998,0.752912473278208,-inf,0,0.7596856966463071,1.000007219006682,-inf,0,0.5077533435275763,0.6650898688424991,826.8131868131868,242.967032967033,792.967032967033,780.8791208791209,758.3150183150184,-0.686951,0.016052,0.731018,4.463654,-2.168274,-1.106567,1,2,2,1,2,90.000000
2021-11-26 23:07:01.786,-inf,0,1.522222742456502,1.48096071085473,-inf,0,-0.007199816606623873,0.7941042201912651,-inf,0,0.7358426977628582,0.752912473278208,-inf,0,0.8551484951406285,1.000007219006682,-inf,0,0.5359309349008718,0.6650898688424991,689.8168498168499,265.9340659340659,789.3406593406594,856.6300366300367,758.7179487179487,-0.666992,0.000000,0.745483,3.828125,-3.566437,-0.134583,1,2,2,1,2,90.000000
2021-11-26 23:07:02.583,,,,,,,,,,,,,,,,,,,,,,,,,,,,,,,,,,,,,,/muse/elements/jaw_clench
2021-11-26 23:07:02.674,,,,,,,,,,,,,,,,,,,,,,,,,,,,,,,,,,,,,,/muse/elements/blink
2021-11-26 23:07:02.785,,,,,,,,,,,,,,,,,,,,,,,,,,,,,,,,,,,,,,/muse/elements/jaw_clench
2021-11-26 23:07:02.798,-inf,0,0.2839065724793888,1.48096071085473,-inf,0,-0.2303209132500941,0.7941042201912651,-inf,0,0.1781888958631359,0.752912473278208,-inf,0,0.6934799132903775,1.000007219006682,-inf,0,0.4184758449925295,0.6650898688424991,1522.673992673993,743.8095238095239,759.1208791208792,925.934065934066,807.4725274725275,-0.688354,0.013428,0.748108,3.364563,5.570221,-1.831818,1,2,2,1,2,90.000000
2021-11-26 23:07:03.377,,,,,,,,,,,,,,,,,,,,,,,,,,,,,,,,,,,,,,/muse/elements/blink
2021-11-26 23:07:03.785,-inf,0,0.3316354036357262,1.48096071085473,-inf,0,-0.1948820069994114,0.7941042201912651,-inf,0,0.1385700742466049,0.752912473278208,-inf,0,0.650236658442383,1.000007219006682,-inf,0,0.4228807413127597,0.6650898688424991,832.8571428571429,660.8058608058608,759.1208791208792,844.1391941391942,849.7802197802198,-0.721924,0.015686,0.722900,4.246826,-2.945862,-1.809387,1,2,4,1,2,95.000000
2021-11-26 23:07:04.312,,,,,,,,,,,,,,,,,,,,,,,,,,,,,,,,,,,,,,/muse/elements/blink
2021-11-26 23:07:04.786,-inf,0,1.096803666607648,1.48096071085473,-inf,0,0.1258388279632583,0.7941042201912651,-inf,0,0.2931700324597389,0.752912473278208,-inf,0,0.518657404393434,1.000007219006682,-inf,0,0.1145029638159817,0.6650898688424991,700.6959706959707,389.2307692307692,782.4908424908425,788.1318681318681,755.8974358974359,-0.690735,0.020935,0.721497,3.603821,-4.029999,-1.136475,1,2,4,1,2,95.000000
2021-11-26 23:07:05.790,-inf,0,0.868996840618853,1.414127804527565,-inf,0,0.1879534663913843,0.6808523913963573,-inf,0,0.431534645101081,0.7213593422546127,-inf,0,0.5405941134665923,0.9258900196019237,-inf,0,0.3057203904338556,0.5691217348629815,0,0,812.7106227106227,659.1941391941392,614.8717948717949,-0.750610,0.005859,0.724304,4.740295,-36.995239,-0.299072,1,2,4,1,1,95.000000
2021-11-26 23:07:05.824,,,,,,,,,,,,,,,,,,,,,,,,,,,,,,,,,,,,,,/muse/elements/jaw_clench
2021-11-26 23:07:06.043,,,,,,,,,,,,,,,,,,,,,,,,,,,,,,,,,,,,,,/muse/elements/blink
2021-11-26 23:07:06.332,,,,,,,,,,,,,,,,,,,,,,,,,,,,,,,,,,,,,,/muse/elements/blink
2021-11-26 23:07:06.770,,,,,,,,,,,,,,,,,,,,,,,,,,,,,,,,,,,,,,/muse/elements/blink
2021-11-26 23:07:06.786,-inf,0,1.00899165816273,1.251691060881944,-inf,0,0.1092643288833433,0.6553103746750737,-inf,0,0.3510495236616676,0.5700679865296686,-inf,0,0.4665183424534499,0.8458437648616803,-inf,0,0.3174519512975227,0.6405772633408031,681.7582417582418,410.5860805860806,767.1794871794872,734.9450549450549,746.6300366300367,-0.740479,-0.013245,0.698486,4.844971,-5.181427,-1.054230,1,4,4,1,1,95.000000
2021-11-26 23:07:06.947,,,,,,,,,,,,,,,,,,,,,,,,,,,,,,,,,,,,,,/muse/elements/jaw_clench
2021-11-26 23:07:07.786,-inf,0,0.1979898008999038,1.251691060881944,-inf,0,-0.2226876503602903,0.6553103746750737,-inf,0,0.3528591019803409,0.5700679865296686,-inf,0,1.014160677117635,0.8458437648616803,-inf,0,0.6172006011245312,0.6405772633408031,780.8791208791209,742.1978021978023,763.1501831501831,796.5934065934066,705.1282051282052,-0.732117,-0.012390,0.706970,4.299164,-5.644989,-2.205658,1,2,2,1,1,95.000000
2021-11-26 23:07:08.793,-inf,0,0.1439294158258818,0.9838268019637423,-inf,0,-0.2441370593736226,0.9876968915050014,-inf,0,0.4474410189059038,0.7474887428638481,-inf,0,0.7493423299246446,1.040942403590015,-inf,0,0.464437160786628,0.6762643488132497,220,71.31868131868131,839.3040293040293,549.1941391941392,597.1428571428571,-0.721008,-0.021973,0.669067,5.487976,-16.314392,0.059814,1,1,2,1,1,95.000000
2021-11-26 23:07:08.871,,,,,,,,,,,,,,,,,,,,,,,,,,,,,,,,,,,,,,/muse/elements/jaw_clench
2021-11-26 23:07:08.959,,,,,,,,,,,,,,,,,,,,,,,,,,,,,,,,,,,,,,/muse/elements/blink
2021-11-26 23:07:09.089,,,,,,,,,,,,,,,,,,,,,,,,,,,,,,,,,,,,,,/muse/elements/jaw_clench
2021-11-26 23:07:09.291,,,,,,,,,,,,,,,,,,,,,,,,,,,,,,,,,,,,,,/muse/elements/blink
2021-11-26 23:07:09.786,-inf,0,1.840042348283059,0.9292440603979563,-inf,0,0.6174549709370214,1.018412760095778,-inf,0,0.4228540499959145,0.74599657759067,-inf,0,0.5316312029037515,1.074022371216931,-inf,0,0.2945844844318568,0.6736903095117996,768.3882783882784,614.4688644688645,773.6263736263736,795.3846153846154,649.5238095238095,-0.735352,-0.022705,0.703857,4.605713,-3.304749,-3.080444,1,1,2,1,1,95.000000
2021-11-26 23:07:10.790,-inf,0,1.67958719696813,1.002214560957035,-inf,0,0.3932654535584686,0.117207234684541,-inf,0,0.2964591813648978,0.6999269562900065,-inf,0,0.5612292529502463,0.8943109335641084,-inf,0,0.2896899946819026,0.7913124715680644,648.7179487179487,748.6446886446887,788.1318681318681,745.0183150183151,770,-0.727966,-0.019653,0.707031,4.344025,-3.962708,-1.921539,1,1,2,1,1,95.000000
2021-11-26 23:07:11.785,-inf,0,-0.1824564627236981,0.9754807070281203,-inf,0,-0.5561860815816727,0.5952920038151284,-inf,0,0.1702603799583637,0.9303245025445198,-inf,0,0.48850121653437,0.8677102128727932,-inf,0,0.200473076382914,0.6591966589019066,744.6153846153846,496.007326007326,784.9084249084249,779.2673992673992,810.6959706959707,-0.725403,-0.020813,0.704773,4.755249,-5.293579,-1.884155,1,1,2,1,1,95.000000
2021-11-26 23:07:12.532,,,,,,,,,,,,,,,,,,,,,,,,,,,,,,,,,,,,,,/muse/elements/blink
2021-11-26 23:07:12.532,,,,,,,,,,,,,,,,,,,,,,,,,,,,,,,,,,,,,,/muse/elements/jaw_clench
2021-11-26 23:07:12.785,-inf,0,0.4179888337689328,0.7109450884584709,-inf,0,-0.3418488349752453,0.8218324469589164,-inf,0,0.4864736890909208,1.084255811611374,-inf,0,0.5021510290688127,1.002759263481864,-inf,0,0.1754128963353847,0.5914009503536529,744.6153846153846,851.7948717948718,763.1501831501831,807.8754578754579,546.3736263736264,-0.761780,-0.032104,0.666016,3.618774,-0.837402,-2.123413,1,1,2,1,1,95.000000
2021-11-26 23:07:13.789,-inf,0,1.367859959116193,0.847503757431381,-inf,0,0.06758659137697755,0.9298256983715061,-inf,0,0.5546996512054687,1.044902273192434,-inf,0,0.8189525243235132,1.136948904352409,-inf,0,0.6775828719098106,0.6680546987500549,733.3333333333334,528.2417582417582,778.4615384615385,754.6886446886447,745.4212454212454,-0.775330,-0.034058,0.661560,5.532837,-6.886139,-1.697235,1,1,2,1,1,90.000000
2021-11-26 23:07:14.793,-inf,0,0.4584715658513905,1.134696640048097,-inf,0,-0.1871247760235884,0.9686017497607124,-inf,0,0.2489630389512677,1.1781308058791,-inf,0,0.5823232305280015,0.9434712753047384,-inf,0,0.5495524952803823,0.5053525423116247,725.2747252747253,474.2490842490843,786.5201465201466,787.7289377289378,654.7619047619048,-0.762451,-0.026062,0.664917,5.196381,-5.084229,-2.145844,1,1,2,1,1,90.000000
2021-11-26 23:07:15.786,-inf,0,0.134601666115875,1.161115776423393,-inf,0,0.07936590675475226,0.8325326307712316,-inf,0,0.2635715022146125,1.049129230493725,-inf,0,0.5092460228673293,0.7188629602133328,-inf,0,0.3914141085298787,0.7907007738550141,753.4798534798535,358.2051282051282,791.3553113553114,778.4615384615385,803.4432234432235,-0.777771,-0.018616,0.660095,5.353394,-8.052521,-1.988831,1,1,2,1,1,90.000000
2021-11-26 23:07:16.509,,,,,,,,,,,,,,,,,,,,,,,,,,,,,,,,,,,,,,/muse/elements/blink
2021-11-26 23:07:16.786,-inf,0,0.2753571513273221,1.339437045262005,-inf,0,0.1349833130053194,0.7034204860062243,-inf,0,0.2679144420919087,1.047841538213827,-inf,0,0.5214223051114671,0.7376049005132586,-inf,0,0.3053453556818642,0.862125666504201,679.3406593406594,999.2673992673992,785.3113553113553,756.3003663003664,569.7435897435897,-0.806885,-0.038147,0.674072,5.517883,1.510315,-3.985138,1,1,4,1,1,90.000000
2021-11-26 23:07:17.121,,,,,,,,,,,,,,,,,,,,,,,,,,,,,,,,,,,,,,/muse/elements/blink
2021-11-26 23:07:17.121,,,,,,,,,,,,,,,,,,,,,,,,,,,,,,,,,,,,,,/muse/elements/jaw_clench
2021-11-26 23:07:17.298,,,,,,,,,,,,,,,,,,,,,,,,,,,,,,,,,,,,,,/muse/elements/jaw_clench
2021-11-26 23:07:17.495,,,,,,,,,,,,,,,,,,,,,,,,,,,,,,,,,,,,,,/muse/elements/blink
2021-11-26 23:07:17.785,-inf,0,0.4619448431309254,1.10946949079691,-inf,0,0.009801493960881015,0.5704719484279478,-inf,0,0.02278185255606519,0.835248135309694,-inf,0,0.5844069190093187,0.7805236013103666,-inf,0,0.4461019514430044,0.6309723548901506,685.3846153846154,550,776.4468864468864,809.4871794871796,982.7472527472528,-0.794128,-0.037476,0.613098,4.448700,-13.024597,-2.863617,1,2,4,1,1,90.000000
2021-11-26 23:07:18.785,-inf,0,0.3559844776823692,1.10946949079691,-inf,0,0.04454599496582267,0.5704719484279478,-inf,0,0.1521103350316268,0.835248135309694,-inf,0,0.5353296221800622,0.7805236013103666,-inf,0,0.1324634622626536,0.6309723548901506,606.007326007326,338.4615384615385,797.8021978021978,810.2930402930403,781.2820512820513,-0.782471,-0.006531,0.607239,1.652374,-7.058105,2.863617,1,2,4,1,1,90.000000
2021-11-26 23:07:19.457,,,,,,,,,,,,,,,,,,,,,,,,,,,,,,,,,,,,,,/muse/elements/blink
2021-11-26 23:07:19.633,,,,,,,,,,,,,,,,,,,,,,,,,,,,,,,,,,,,,,/muse/elements/jaw_clench
2021-11-26 23:07:19.786,-inf,0,0.3267126112494451,1.10946949079691,-inf,0,0.06479562083594123,0.5704719484279478,-inf,0,0.1555541352891325,0.835248135309694,-inf,0,0.4856341478939656,0.7805236013103666,-inf,0,0.2563175631025238,0.6309723548901506,794.5787545787546,49.56043956043956,868.3150183150184,767.1794871794872,833.6630036630037,-0.715637,-0.251709,0.674500,27.963257,6.594543,-9.869385,1,2,4,1,2,90.000000
2021-11-26 23:07:20.202,,,,,,,,,,,,,,,,,,,,,,,,,,,,,,,,,,,,,,/muse/elements/blink
2021-11-26 23:07:20.339,,,,,,,,,,,,,,,,,,,,,,,,,,,,,,,,,,,,,,/muse/elements/blink
2021-11-26 23:07:20.786,-inf,0,1.753625304281043,1.10946949079691,-inf,0,0.4312870968724588,0.5704719484279478,-inf,0,0.1610851751693497,0.835248135309694,-inf,0,0.4616070930286822,0.7805236013103666,-inf,0,0.3671459009185946,0.6309723548901506,804.6520146520147,615.2747252747253,775.6410256410256,780.8791208791209,801.8315018315019,-0.760254,-0.124939,0.666626,5.742188,-3.529053,-1.495361,1,2,4,1,2,90.000000
2021-11-26 23:07:21.385,,,,,,,,,,,,,,,,,,,,,,,,,,,,,,,,,,,,,,/muse/elements/blink
2021-11-26 23:07:21.785,-inf,0,1.4777258365873,1.10946949079691,-inf,0,0.1525212372484027,0.5704719484279478,-inf,0,0.2639428691317594,0.835248135309694,-inf,0,0.4451461211773882,0.7805236013103666,-inf,0,0.3151908128598634,0.6309723548901506,693.8461538461538,448.0586080586081,795.3846153846154,805.8608058608058,700.6959706959707,-0.760620,-0.147705,0.653748,5.196381,-5.757141,-2.706604,1,2,4,1,2,90.000000
2021-11-26 23:07:22.175,,,,,,,,,,,,,,,,,,,,,,,,,,,,,,,,,,,,,,/muse/elements/blink
2021-11-26 23:07:22.786,-inf,0,-0.0001107333233989711,1.10946949079691,-inf,0,-0.1350131238327347,0.5704719484279478,-inf,0,0.3374279997212282,0.835248135309694,-inf,0,0.361771770844843,0.7805236013103666,-inf,0,0.383393666388896,0.6309723548901506,582.6373626373627,580.2197802197802,794.981684981685,862.2710622710623,789.7435897435897,-0.764404,-0.145996,0.647278,3.618774,-3.222504,-2.011261,1,2,4,1,2,90.000000
2021-11-26 23:07:23.786,-inf,0,-0.1498242286283652,1.10946949079691,-inf,0,-0.2743286836776118,0.5704719484279478,-inf,0,0.2661368141829639,0.835248135309694,-inf,0,0.4232271924704719,0.7805236013103666,-inf,0,0.2933269093114845,0.6309723548901506,707.1428571428571,554.4322344322344,794.5787545787546,795.3846153846154,749.8534798534798,-0.749390,-0.158203,0.655884,4.583282,-5.330963,-2.639313,1,2,2,1,2,90.000000
2021-11-26 23:07:24.787,-inf,0,0.1152541147138771,1.262350989215879,-inf,0,-0.1828465921188188,0.5828657647398104,-inf,0,0.2507711573812296,0.8023043745702205,-inf,0,0.5082545413474614,0.9368378257984703,-inf,0,0.2904738984189777,0.6361334655866373,720.0366300366301,468.2051282051282,782.0879120879121,765.1648351648352,703.1135531135532,-0.779663,-0.153503,0.640381,4.882355,-1.046753,-1.218719,1,1,4,1,1,90.000000
2021-11-26 23:07:25.551,,,,,,,,,,,,,,,,,,,,,,,,,,,,,,,,,,,,,,/muse/elements/jaw_clench
2021-11-26 23:07:25.750,,,,,,,,,,,,,,,,,,,,,,,,,,,,,,,,,,,,,,/muse/elements/blink
2021-11-26 23:07:25.786,1.072685284372326,0,0.173002385596346,1.165395093431115,1.1650364231838,0,-0.1870904602475829,0.6231804001258358,1.222411200068805,0,0.1149243310428641,0.8217076737065112,1.158011752449587,0,0.48977877141202,0.8906092976356494,0.7501385292865345,0,0.3624256868219303,0.6435170408114781,1073.406593406593,195.4212454212454,1624.212454212454,543.1501831501831,679.3406593406594,-0.789917,-0.121399,0.616333,4.575806,-10.026398,3.887939,1,1,4,1,1,90.000000
2021-11-26 23:07:26.634,,,,,,,,,,,,,,,,,,,,,,,,,,,,,,,,,,,,,,/muse/elements/blink
2021-11-26 23:07:26.634,,,,,,,,,,,,,,,,,,,,,,,,,,,,,,,,,,,,,,/muse/elements/jaw_clench
2021-11-26 23:07:26.786,1.072685284372326,0,0.06689053093409511,1.499270243318946,1.1650364231838,0,-0.2118083926571461,0.6543864192728246,1.222411200068805,0,0.02727889949105624,0.5646424919737458,1.158011752449587,0,0.5550601793899433,0.9195716294578113,0.7501385292865345,0,0.2970498839513958,0.5957073707987475,870.7326007326008,0,758.7179487179487,839.7069597069598,812.7106227106227,-0.766602,-0.107910,0.641785,4.209442,-6.347809,1.943970,1,4,4,1,1,90.000000
2021-11-26 23:07:27.786,1.072685284372326,0,0.06689053093409511,1.499270243318946,1.1650364231838,0,-0.2118083926571461,0.6543864192728246,1.222411200068805,0,0.02727889949105624,0.5646424919737458,1.158011752449587,0,0.5550601793899433,0.9195716294578113,0.7501385292865345,0,0.2970498839513958,0.5957073707987475,718.021978021978,669.2673992673992,653.956043956044,787.7289377289378,694.2490842490843,-0.761841,-0.111633,0.658997,5.084229,-8.897400,-3.895416,1,2,4,1,1,90.000000
2021-11-26 23:07:28.596,,,,,,,,,,,,,,,,,,,,,,,,,,,,,,,,,,,,,,/muse/elements/blink
2021-11-26 23:07:28.786,1.072685284372326,0,1.830622289261351,1.499270243318946,1.1650364231838,0,0.5200506049858309,0.6543864192728246,1.222411200068805,0,0.6849063643528002,0.5646424919737458,1.158011752449587,0,0.9362822897180618,0.9195716294578113,0.7501385292865345,0,0.9185482764794378,0.5957073707987475,1245.860805860806,1623.809523809524,876.3736263736264,1299.85347985348,1278.901098901099,-0.788635,-0.135010,0.645691,-9.241333,13.607788,4.493561,1,2,4,1,2,90.000000
2021-11-26 23:07:28.882,,,,,,,,,,,,,,,,,,,,,,,,,,,,,,,,,,,,,,/muse/elements/jaw_clench
2021-11-26 23:07:29.080,,,,,,,,,,,,,,,,,,,,,,,,,,,,,,,,,,,,,,/muse/elements/blink
2021-11-26 23:07:29.321,,,,,,,,,,,,,,,,,,,,,,,,,,,,,,,,,,,,,,/muse/elements/blink
2021-11-26 23:07:29.674,,,,,,,,,,,,,,,,,,,,,,,,,,,,,,,,,,,,,,/muse/elements/blink
2021-11-26 23:07:29.793,1.072685284372326,0,1.724792690646779,1.499270243318946,1.1650364231838,0,0.5482305624750599,0.6543864192728246,1.222411200068805,0,0.6777876360971895,0.5646424919737458,1.158011752449587,0,0.930053278980145,0.9195716294578113,0.7501385292865345,0,0.8587679934088047,0.5957073707987475,912.2344322344322,126.5201465201465,740.1831501831502,636.2271062271062,651.5384615384615,-0.950928,-0.092651,0.421875,-0.687866,3.207550,-3.185120,1,4,2,1,4,90.000000
2021-11-26 23:07:29.805,,,,,,,,,,,,,,,,,,,,,,,,,,,,,,,,,,,,,,/muse/elements/jaw_clench
2021-11-26 23:07:30.786,1.072685284372326,0,0.7723196741370698,1.499270243318946,1.1650364231838,0,0.3006051715452684,0.6543864192728246,1.222411200068805,0,0.2338111861947178,0.5646424919737458,1.158011752449587,0,0.3241654112746417,0.9195716294578113,0.7501385292865345,0,-0.0814210292136264,0.5957073707987475,626.1538461538462,359.010989010989,756.3003663003664,787.3260073260074,650.7326007326008,-0.900513,-0.141602,0.461243,4.463654,-8.224487,-0.912170,1,2,2,1,2,90.000000
2021-11-26 23:07:30.789,,,,,,,,,,,,,,,,,,,,,,,,,,,,,,,,,,,,,,/muse/elements/blink
2021-11-26 23:07:31.403,,,,,,,,,,,,,,,,,,,,,,,,,,,,,,,,,,,,,,/muse/elements/blink
2021-11-26 23:07:31.786,1.072685284372326,0,0.5031625461682843,1.499270243318946,1.1650364231838,0,0.1907789913590602,0.6543864192728246,1.222411200068805,0,0.2347397242714394,0.5646424919737458,1.158011752449587,0,0.2620712055552903,0.9195716294578113,0.7501385292865345,0,0.07176051847285458,0.5957073707987475,681.7582417582418,652.3443223443223,749.047619047619,812.7106227106227,782.0879120879121,-0.837769,-0.136536,0.506287,4.067383,-7.850647,3.925323,1,2,2,1,2,90.000000
2021-11-26 23:07:31.822,,,,,,,,,,,,,,,,,,,,,,,,,,,,,,,,,,,,,,/muse/elements/blink
2021-11-26 23:07:32.725,,,,,,,,,,,,,,,,,,,,,,,,,,,,,,,,,,,,,,/muse/elements/jaw_clench
2021-11-26 23:07:32.785,1.072685284372326,0,1.033986220413831,1.499270243318946,1.1650364231838,0,0.1714735975625235,0.6543864192728246,1.222411200068805,0,0.1429321400193046,0.5646424919737458,1.158011752449587,0,0.3413203622265833,0.9195716294578113,0.7501385292865345,0,0.2111379040491081,0.5957073707987475,987.5824175824176,1325.238095238095,765.5677655677656,873.5531135531136,819.5604395604396,-0.846680,-0.119202,0.574890,13.600311,6.736603,-9.106750,1,4,2,1,2,90.000000
2021-11-26 23:07:32.858,,,,,,,,,,,,,,,,,,,,,,,,,,,,,,,,,,,,,,/muse/elements/blink
2021-11-26 23:07:33.145,,,,,,,,,,,,,,,,,,,,,,,,,,,,,,,,,,,,,,/muse/elements/blink
2021-11-26 23:07:33.323,,,,,,,,,,,,,,,,,,,,,,,,,,,,,,,,,,,,,,/muse/elements/blink
2021-11-26 23:07:33.673,,,,,,,,,,,,,,,,,,,,,,,,,,,,,,,,,,,,,,/muse/elements/blink
2021-11-26 23:07:33.794,1.072685284372326,0,1.06865427537123,1.499270243318946,1.1650364231838,0,-0.09978554481736851,0.6543864192728246,1.222411200068805,0,0.2615329142393299,0.5646424919737458,1.158011752449587,0,0.4796946921526735,0.9195716294578113,0.7501385292865345,0,0.5716785671234841,0.5957073707987475,948.901098901099,0,760.3296703296703,935.2014652014652,686.1904761904763,-0.736023,0.109558,0.598999,5.144043,-15.207825,-4.777679,1,4,4,1,2,90.000000
2021-11-26 23:07:33.851,,,,,,,,,,,,,,,,,,,,,,,,,,,,,,,,,,,,,,/muse/elements/jaw_clench
2021-11-26 23:07:34.552,,,,,,,,,,,,,,,,,,,,,,,,,,,,,,,,,,,,,,/muse/elements/blink
2021-11-26 23:07:34.786,1.072685284372326,0,1.28926974207772,1.499270243318946,1.1650364231838,0,0.08872629246685526,0.6543864192728246,1.222411200068805,0,0.2525216955618647,0.5646424919737458,1.158011752449587,0,0.8224703858376446,0.9195716294578113,0.7501385292865345,0,0.7015356905467235,0.5957073707987475,848.1684981684982,556.4468864468864,743.4065934065934,817.948717948718,658.3882783882784,-0.748352,0.044617,0.644226,9.764709,-14.841461,6.497345,1,2,4,1,2,80.000000
2021-11-26 23:07:34.794,,,,,,,,,,,,,,,,,,,,,,,,,,,,,,,,,,,,,,/muse/elements/jaw_clench
2021-11-26 23:07:35.058,,,,,,,,,,,,,,,,,,,,,,,,,,,,,,,,,,,,,,/muse/elements/blink
2021-11-26 23:07:35.301,,,,,,,,,,,,,,,,,,,,,,,,,,,,,,,,,,,,,,/muse/elements/jaw_clench
2021-11-26 23:07:35.498,,,,,,,,,,,,,,,,,,,,,,,,,,,,,,,,,,,,,,/muse/elements/jaw_clench
2021-11-26 23:07:35.587,,,,,,,,,,,,,,,,,,,,,,,,,,,,,,,,,,,,,,/muse/elements/blink
2021-11-26 23:07:35.785,1.072685284372326,0,1.240356763178966,1.499270243318946,1.1650364231838,0,0.08751065287023579,0.6543864192728246,1.222411200068805,0,0.2347956944816447,0.5646424919737458,1.158011752449587,0,0.763394030171578,0.9195716294578113,0.7501385292865345,0,0.6743573557142706,0.5957073707987475,1623.406593406593,1623.809523809524,811.0989010989011,1623.809523809524,1629.85347985348,-0.767273,0.069031,0.656250,4.553375,-4.269257,-1.472931,1,4,4,1,2,80.000000
2021-11-26 23:07:36.285,,,,,,,,,,,,,,,,,,,,,,,,,,,,,,,,,,,,,,/muse/elements/blink
2021-11-26 23:07:36.374,,,,,,,,,,,,,,,,,,,,,,,,,,,,,,,,,,,,,,/muse/elements/jaw_clench
2021-11-26 23:07:36.701,,,,,,,,,,,,,,,,,,,,,,,,,,,,,,,,,,,,,,/muse/elements/blink
2021-11-26 23:07:36.785,1.072685284372326,0,1.240356763178966,1.499270243318946,1.1650364231838,0,0.08751065287023579,0.6543864192728246,1.222411200068805,0,0.2347956944816447,0.5646424919737458,1.158011752449587,0,0.763394030171578,0.9195716294578113,0.7501385292865345,0,0.6743573557142706,0.5957073707987475,1623.406593406593,137.8021978021978,805.0549450549451,1474.725274725275,1512.197802197802,-0.749329,0.016541,0.568970,0.239258,-12.830200,-10.295563,1,4,4,4,4,80.000000
2021-11-26 23:07:36.790,,,,,,,,,,,,,,,,,,,,,,,,,,,,,,,,,,,,,,/muse/elements/jaw_clench
2021-11-26 23:07:37.117,,,,,,,,,,,,,,,,,,,,,,,,,,,,,,,,,,,,,,/muse/elements/blink
2021-11-26 23:07:37.600,,,,,,,,,,,,,,,,,,,,,,,,,,,,,,,,,,,,,,/muse/elements/jaw_clench
2021-11-26 23:07:37.786,1.072685284372326,0,0.7684449283539802,1.499270243318946,1.1650364231838,0,0.3231199477825992,0.6543864192728246,1.222411200068805,0,0.1224895061928753,0.5646424919737458,1.158011752449587,0,0.5413485136603988,0.9195716294578113,0.7501385292865345,0,0.3480512345271983,0.5957073707987475,404.9450549450549,0,786.5201465201466,229.2673992673993,627.7655677655678,-0.856384,0.035034,0.547485,6.661835,-5.622559,-0.650482,1,2,4,1,2,80.000000
2021-11-26 23:07:37.841,,,,,,,,,,,,,,,,,,,,,,,,,,,,,,,,,,,,,,/muse/elements/jaw_clench
2021-11-26 23:07:37.929,,,,,,,,,,,,,,,,,,,,,,,,,,,,,,,,,,,,,,/muse/elements/blink
2021-11-26 23:07:38.346,,,,,,,,,,,,,,,,,,,,,,,,,,,,,,,,,,,,,,/muse/elements/blink
2021-11-26 23:07:38.346,,,,,,,,,,,,,,,,,,,,,,,,,,,,,,,,,,,,,,/muse/elements/jaw_clench
2021-11-26 23:07:38.785,1.072685284372326,0,0.5874832290255486,1.499270243318946,1.1650364231838,0,0.08620747088660502,0.6543864192728246,1.222411200068805,0,0.1894939337435836,0.5646424919737458,1.158011752449587,0,0.5442114502202378,0.9195716294578113,0.7501385292865345,0,0.355018647186581,0.5957073707987475,1623.809523809524,440.8058608058608,777.6556776556777,461.7582417582418,1073.406593406593,-0.846375,-0.005737,0.535400,-2.250519,0.613098,-4.314117,1,4,4,1,4,80.000000
2021-11-26 23:07:39.251,,,,,,,,,,,,,,,,,,,,,,,,,,,,,,,,,,,,,,/muse/elements/blink
2021-11-26 23:07:39.758,,,,,,,,,,,,,,,,,,,,,,,,,,,,,,,,,,,,,,/muse/elements/blink
2021-11-26 23:07:39.785,1.072685284372326,0,0.5342226126425178,1.499270243318946,1.1650364231838,0,-0.1948225117859935,0.6543864192728246,1.222411200068805,0,0.1271404827411604,0.5646424919737458,1.158011752449587,0,0.5727190237320936,0.9195716294578113,0.7501385292865345,0,0.3040507424109412,0.5957073707987475,583.4432234432235,588.6813186813187,794.1758241758242,1353.040293040293,770.8058608058608,-0.886475,-0.004822,0.565857,7.304840,-8.673096,-10.729218,1,4,4,1,4,80.000000
2021-11-26 23:07:39.956,,,,,,,,,,,,,,,,,,,,,,,,,,,,,,,,,,,,,,/muse/elements/blink
2021-11-26 23:07:40.791,1.072685284372326,0,0.5342226126425178,1.499270243318946,1.1650364231838,0,-0.1948225117859935,0.6543864192728246,1.222411200068805,0,0.1271404827411604,0.5646424919737458,1.158011752449587,0,0.5727190237320936,0.9195716294578113,0.7501385292865345,0,0.3040507424109412,0.5957073707987475,0,411.3919413919414,802.2344322344322,1135.860805860806,665.6410256410256,-0.796631,0.020020,0.656616,8.202057,-2.429962,-5.129089,1,4,4,1,4,80.000000
2021-11-26 23:07:40.891,,,,,,,,,,,,,,,,,,,,,,,,,,,,,,,,,,,,,,/muse/elements/blink
2021-11-26 23:07:41.177,,,,,,,,,,,,,,,,,,,,,,,,,,,,,,,,,,,,,,/muse/elements/blink
2021-11-26 23:07:41.769,,,,,,,,,,,,,,,,,,,,,,,,,,,,,,,,,,,,,,/muse/elements/blink
2021-11-26 23:07:41.785,1.072685284372326,0,0.5342226126425178,1.499270243318946,1.1650364231838,0,-0.1948225117859935,0.6543864192728246,1.222411200068805,0,0.1271404827411604,0.5646424919737458,1.158011752449587,0,0.5727190237320936,0.9195716294578113,0.7501385292865345,0,0.3040507424109412,0.5957073707987475,1623.003663003663,992.8205128205128,767.985347985348,663.2234432234433,456.5201465201465,-0.812256,0.021484,0.620239,8.755341,-6.616974,-5.532837,1,4,4,1,4,80.000000
2021-11-26 23:07:42.097,,,,,,,,,,,,,,,,,,,,,,,,,,,,,,,,,,,,,,/muse/elements/blink
2021-11-26 23:07:42.473,,,,,,,,,,,,,,,,,,,,,,,,,,,,,,,,,,,,,,/muse/elements/jaw_clench
2021-11-26 23:07:42.789,1.072685284372326,0,0.7416296216908563,1.499270243318946,1.1650364231838,0,-0.004594119593017139,0.6543864192728246,1.222411200068805,0,0.202803015564973,0.5646424919737458,1.158011752449587,0,0.5943945139302449,0.9195716294578113,0.7501385292865345,0,0.4882818725596167,0.5957073707987475,315.8974358974359,482.7106227106227,774.0293040293041,676.5201465201466,498.8278388278388,-0.758057,0.017456,0.640625,4.822540,-14.116211,6.699219,1,4,2,1,2,80.000000
2021-11-26 23:07:42.804,,,,,,,,,,,,,,,,,,,,,,,,,,,,,,,,,,,,,,/muse/elements/blink
2021-11-26 23:07:42.894,,,,,,,,,,,,,,,,,,,,,,,,,,,,,,,,,,,,,,/muse/elements/jaw_clench
2021-11-26 23:07:42.983,,,,,,,,,,,,,,,,,,,,,,,,,,,,,,,,,,,,,,/muse/elements/blink
2021-11-26 23:07:43.401,,,,,,,,,,,,,,,,,,,,,,,,,,,,,,,,,,,,,,/muse/elements/blink
2021-11-26 23:07:43.533,,,,,,,,,,,,,,,,,,,,,,,,,,,,,,,,,,,,,,/muse/elements/jaw_clench
2021-11-26 23:07:43.691,,,,,,,,,,,,,,,,,,,,,,,,,,,,,,,,,,,,,,/muse/elements/blink
2021-11-26 23:07:43.789,1.072685284372326,0,1.345774838217073,1.499270243318946,1.1650364231838,0,0.5241309938091019,0.6543864192728246,1.222411200068805,0,0.652280443180063,0.5646424919737458,1.158011752449587,0,0.4290325292003256,0.9195716294578113,0.7501385292865345,0,0.3310020555426495,0.5957073707987475,1548.461538461539,538.3150183150183,800.2197802197802,747.8388278388279,838.901098901099,-0.718567,0.024353,0.668762,2.811279,-0.598145,1.764526,1,4,2,1,2,80.000000
2021-11-26 23:07:44.111,,,,,,,,,,,,,,,,,,,,,,,,,,,,,,,,,,,,,,/muse/elements/jaw_clench
2021-11-26 23:07:44.785,1.072685284372326,0,0.7202217879122127,1.499270243318946,1.1650364231838,0,0.3102129887040291,0.6543864192728246,1.222411200068805,0,0.440979803011879,0.5646424919737458,1.158011752449587,0,0.395735074504895,0.9195716294578113,0.7501385292865345,0,0.3429564717079542,0.5957073707987475,0,367.0695970695971,778.8644688644689,888.0586080586081,705.934065934066,-0.752625,0.028442,0.655823,4.067383,-7.603912,-7.065582,1,4,4,1,2,95.000000
2021-11-26 23:07:44.817,,,,,,,,,,,,,,,,,,,,,,,,,,,,,,,,,,,,,,/muse/elements/jaw_clench
2021-11-26 23:07:45.279,,,,,,,,,,,,,,,,,,,,,,,,,,,,,,,,,,,,,,/muse/elements/blink
2021-11-26 23:07:45.327,,,,,,,,,,,,,,,,,,,,,,,,,,,,,,,,,,,,,,/muse/elements/jaw_clench
2021-11-26 23:07:45.785,1.072685284372326,0,-0.1585128090076891,1.499270243318946,1.1650364231838,0,-0.08145703101330989,0.6543864192728246,1.222411200068805,0,0.237075228706037,0.5646424919737458,1.158011752449587,0,0.5270000220597376,0.9195716294578113,0.7501385292865345,0,0.3365597329793072,0.5957073707987475,1263.186813186813,590.6959706959707,790.5494505494506,741.7948717948718,651.1355311355312,-0.714783,0.024780,0.677795,6.250610,-4.762726,-0.052338,1,4,4,1,2,95.000000
2021-11-26 23:07:45.832,,,,,,,,,,,,,,,,,,,,,,,,,,,,,,,,,,,,,,/muse/elements/jaw_clench
2021-11-26 23:07:46.032,,,,,,,,,,,,,,,,,,,,,,,,,,,,,,,,,,,,,,/muse/elements/blink
2021-11-26 23:07:46.735,,,,,,,,,,,,,,,,,,,,,,,,,,,,,,,,,,,,,,/muse/elements/jaw_clench
2021-11-26 23:07:46.791,1.072685284372326,0,1.008400467939753,1.499270243318946,1.1650364231838,0,0.3914425904536743,0.6543864192728246,1.222411200068805,0,0.345281853383261,0.5646424919737458,1.158011752449587,0,0.5123664351917745,0.9195716294578113,0.7501385292865345,0,0.2554500271697854,0.5957073707987475,608.021978021978,648.7179487179487,807.8754578754579,641.8681318681319,758.7179487179487,-0.746704,0.013367,0.675964,4.665527,-5.787048,-1.629944,1,4,4,1,2,95.000000
2021-11-26 23:07:46.957,,,,,,,,,,,,,,,,,,,,,,,,,,,,,,,,,,,,,,/muse/elements/blink
2021-11-26 23:07:47.334,,,,,,,,,,,,,,,,,,,,,,,,,,,,,,,,,,,,,,/muse/elements/blink
2021-11-26 23:07:47.334,,,,,,,,,,,,,,,,,,,,,,,,,,,,,,,,,,,,,,/muse/elements/jaw_clench
2021-11-26 23:07:47.787,1.072685284372326,0,1.350255991879993,1.499270243318946,1.1650364231838,0,0.4960783980270454,0.6543864192728246,1.222411200068805,0,0.5965801975507445,0.5646424919737458,1.158011752449587,0,0.3926144900792713,0.9195716294578113,0.7501385292865345,0,0.4622830147938186,0.5957073707987475,1615.347985347985,299.3772893772894,776.0439560439561,884.8351648351648,744.6153846153846,-0.759705,0.075806,0.714111,4.560852,-4.695435,4.747772,1,4,4,1,2,95.000000
2021-11-26 23:07:48.280,,,,,,,,,,,,,,,,,,,,,,,,,,,,,,,,,,,,,,/muse/elements/jaw_clench
2021-11-26 23:07:48.458,,,,,,,,,,,,,,,,,,,,,,,,,,,,,,,,,,,,,,/muse/elements/jaw_clench
2021-11-26 23:07:48.701,,,,,,,,,,,,,,,,,,,,,,,,,,,,,,,,,,,,,,/muse/elements/jaw_clench
2021-11-26 23:07:48.785,1.072685284372326,0,1.288587525079304,1.499270243318946,1.1650364231838,0,0.5203428194470177,0.6543864192728246,1.222411200068805,0,0.6481515914912196,0.5646424919737458,1.158011752449587,0,0.2721578911126702,0.9195716294578113,0.7501385292865345,0,0.2407054947069104,0.5957073707987475,0,878.3882783882784,790.1465201465202,954.5421245421246,728.0952380952381,-0.730042,0.017639,0.692993,0.822449,-7.648773,-12.777863,1,4,4,1,2,95.000000
2021-11-26 23:07:48.880,,,,,,,,,,,,,,,,,,,,,,,,,,,,,,,,,,,,,,/muse/elements/jaw_clench
2021-11-26 23:07:48.991,,,,,,,,,,,,,,,,,,,,,,,,,,,,,,,,,,,,,,/muse/elements/blink
2021-11-26 23:07:49.190,,,,,,,,,,,,,,,,,,,,,,,,,,,,,,,,,,,,,,/muse/elements/jaw_clench
2021-11-26 23:07:49.783,,,,,,,,,,,,,,,,,,,,,,,,,,,,,,,,,,,,,,/muse/elements/jaw_clench
2021-11-26 23:07:49.793,1.072685284372326,0,0.8444501482563866,1.499270243318946,1.1650364231838,0,0.3340422513707334,0.6543864192728246,1.222411200068805,0,0.636896804676481,0.5646424919737458,1.158011752449587,0,0.4383578433767456,0.9195716294578113,0.7501385292865345,0,0.1667249273114165,0.5957073707987475,649.1208791208792,782.893772893773,806.6666666666667,793.3699633699634,648.7179487179487,-0.728943,0.000854,0.685242,1.345825,-7.678680,-1.921539,1,4,4,1,2,95.000000
2021-11-26 23:07:50.785,1.072685284372326,0,0.4674730838404531,1.499270243318946,1.1650364231838,0,-3.384166348773383e-05,0.6543864192728246,1.222411200068805,0,0.3394228404452079,0.5646424919737458,1.158011752449587,0,0.1952096977826614,0.9195716294578113,0.7501385292865345,0,0.02773259162266922,0.5957073707987475,329.1941391941392,624.1391941391942,899.3406593406594,993.2234432234433,783.2967032967033,-0.722168,-0.001221,0.719482,5.891724,-5.106659,-1.031799,1,4,2,1,2,95.000000
2021-11-26 23:07:51.143,,,,,,,,,,,,,,,,,,,,,,,,,,,,,,,,,,,,,,/muse/elements/blink
2021-11-26 23:07:51.143,,,,,,,,,,,,,,,,,,,,,,,,,,,,,,,,,,,,,,/muse/elements/jaw_clench
2021-11-26 23:07:51.789,1.072685284372326,0,0.6457009780858962,1.499270243318946,1.1650364231838,0,0.1969198139134816,0.6543864192728246,1.222411200068805,0,0.2526035480719767,0.5646424919737458,1.158011752449587,0,-0.1427045559862513,0.9195716294578113,0.7501385292865345,0,-0.2315502231638317,0.5957073707987475,0,712.7838827838829,802.6373626373627,1108.461538461539,887.2527472527473,-0.664307,-0.041382,0.705444,10.235748,-10.026398,-32.606354,1,4,4,1,2,95.000000
2021-11-26 23:07:51.845,,,,,,,,,,,,,,,,,,,,,,,,,,,,,,,,,,,,,,/muse/elements/blink
2021-11-26 23:07:52.219,,,,,,,,,,,,,,,,,,,,,,,,,,,,,,,,,,,,,,/muse/elements/jaw_clench
2021-11-26 23:07:52.785,1.072685284372326,0,1.375302388498138,1.499270243318946,1.1650364231838,0,0.8213168908943769,0.6543864192728246,1.222411200068805,0,0.8098918024877027,0.5646424919737458,1.158011752449587,0,0.8756035878853472,0.9195716294578113,0.7501385292865345,0,0.8410889504150928,0.5957073707987475,854.2124542124542,845.3479853479854,822.3809523809524,964.6153846153846,688.6080586080586,-0.705261,-0.052063,0.751160,5.899200,-7.865601,-4.127197,1,2,4,1,2,95.000000
2021-11-26 23:07:52.835,,,,,,,,,,,,,,,,,,,,,,,,,,,,,,,,,,,,,,/muse/elements/blink
2021-11-26 23:07:53.055,,,,,,,,,,,,,,,,,,,,,,,,,,,,,,,,,,,,,,/muse/elements/blink
2021-11-26 23:07:53.789,1.072685284372326,0,1.485673055832223,1.499270243318946,1.1650364231838,0,0.8594778000457679,0.6543864192728246,1.222411200068805,0,0.8513942522457958,0.5646424919737458,1.158011752449587,0,0.9828051082946572,0.9195716294578113,0.7501385292865345,0,0.7877707766465062,0.5957073707987475,803.040293040293,453.6996336996337,838.0952380952381,589.0842490842491,702.7106227106227,-0.674683,-0.022522,0.745789,5.562744,-1.734619,4.149628,1,2,2,1,2,95.000000
2021-11-26 23:07:53.957,,,,,,,,,,,,,,,,,,,,,,,,,,,,,,,,,,,,,,/muse/elements/blink
2021-11-26 23:07:54.785,1.072685284372326,0,1.522169619185834,1.499270243318946,1.1650364231838,0,0.6472696782130426,0.6543864192728246,1.222411200068805,0,0.4663699529229716,0.5646424919737458,1.158011752449587,0,0.7768461128646866,0.9195716294578113,0.7501385292865345,0,0.6193801670006805,0.5957073707987475,752.6739926739926,747.032967032967,814.3223443223443,796.996336996337,700.6959706959707,-0.658813,-0.036438,0.757202,5.308533,-7.312317,-5.787048,1,2,4,1,2,90.000000
2021-11-26 23:07:55.788,1.072685284372326,0,1.227382751182525,1.499270243318946,1.1650364231838,0,0.2136309489690579,0.6543864192728246,1.222411200068805,0,0.2030125424790512,0.5646424919737458,1.158011752449587,0,0.6046433345877095,0.9195716294578113,0.7501385292865345,0,0.3182675981756224,0.5957073707987475,743.8095238095239,757.1062271062272,792.5641025641025,814.3223443223443,698.6813186813187,-0.681091,-0.030396,0.753967,4.553375,-6.654358,-1.413116,1,2,4,1,2,90.000000
2021-11-26 23:07:56.796,1.072685284372326,0,-0.176950180866838,1.499270243318946,1.1650364231838,0,-0.3571071592481772,0.6543864192728246,1.222411200068805,0,0.1128157470636465,0.5646424919737458,1.158011752449587,0,0.602533884349794,0.9195716294578113,0.7501385292865345,0,0.212342981001293,0.5957073707987475,627.7655677655678,354.981684981685,787.3260073260074,792.1611721611722,931.5750915750916,-0.660278,-0.038879,0.753540,2.998199,-1.121521,-0.912170,1,2,4,1,2,90.000000
2021-11-26 23:07:57.785,1.072685284372326,0,0.1207398207289928,1.599815517185687,1.1650364231838,0,-0.2105504258614689,0.975857089603192,1.222411200068805,0,0.271578006007189,0.5528132994944586,1.158011752449587,0,0.3940921298861377,0.8223652960734468,0.7501385292865345,0,0.06951124616784086,0.5724379168988807,676.1172161172161,802.6373626373627,790.5494505494506,767.985347985348,604.7985347985348,-0.668335,-0.040649,0.754883,4.695435,-7.454376,-1.861725,1,1,4,1,1,90.000000
2021-11-26 23:07:58.453,,,,,,,,,,,,,,,,,,,,,,,,,,,,,,,,,,,,,,/muse/elements/blink
2021-11-26 23:07:58.789,1.072685284372326,0,0.3286965087403536,1.599815517185687,1.1650364231838,0,0.02328497726923504,0.975857089603192,1.222411200068805,0,0.4637589202729093,0.5528132994944586,1.158011752449587,0,0.5103187499829719,0.8223652960734468,0.7501385292865345,0,0.1587608806666573,0.5724379168988807,792.967032967033,760.3296703296703,815.5311355311355,729.3040293040293,724.0659340659341,-0.681641,-0.041260,0.755615,3.947754,-4.022522,-0.306549,1,1,4,1,1,90.000000
2021-11-26 23:07:59.799,1.072685284372326,0,0.3911028626479662,1.599815517185687,1.1650364231838,0,0.1477418138366103,0.975857089603192,1.222411200068805,0,0.4241568359966424,0.5528132994944586,1.158011752449587,0,0.4708798725378563,0.8223652960734468,0.7501385292865345,0,0.2319972181595068,0.5724379168988807,800.6227106227107,649.5238095238095,796.1904761904763,754.6886446886447,877.5824175824176,-0.668274,-0.045105,0.758911,4.411316,-1.420593,-2.317810,1,2,2,1,2,90.000000
2021-11-26 23:08:00.785,1.072685284372326,0,0.09314954859151044,1.841512451057903,1.1650364231838,0,-0.06922461132976572,0.6204194906343874,1.222411200068805,0,0.06964195375128214,0.4116673421737024,1.158011752449587,0,0.5048328481396934,0.8830828096393503,0.7501385292865345,0,0.3015070654493176,0.3428517710664415,855.8241758241759,724.4688644688645,801.4285714285714,808.6813186813187,813.5164835164835,-0.663086,-0.040649,0.758240,4.583282,-8.516083,-0.912170,1,1,2,1,1,90.000000
2021-11-26 23:08:01.361,,,,,,,,,,,,,,,,,,,,,,,,,,,,,,,,,,,,,,/muse/elements/blink
2021-11-26 23:08:01.787,1.072685284372326,0,0.233907674434291,1.655916471445598,1.1650364231838,0,-0.1512746254959894,0.5315073684525369,1.222411200068805,0,0.09903070355976036,0.4067670609984483,1.158011752449587,0,0.4669600332971411,0.9147969257233618,0.7501385292865345,0,0.06622147858041252,0.3015260780763435,776.8498168498169,440.4029304029304,784.9084249084249,778.0586080586081,796.996336996337,-0.669739,-0.049683,0.763184,4.157104,-5.076752,-0.568237,1,1,2,1,1,90.000000
2021-11-26 23:08:02.784,1.072685284372326,0,0.268807139368524,1.655916471445598,1.1650364231838,0,-0.3093098984226109,0.5315073684525369,1.222411200068805,0,0.05670634622310376,0.4067670609984483,1.158011752449587,0,0.4600159083323092,0.9147969257233618,0.7501385292865345,0,0.01877537619836498,0.3015260780763435,723.6630036630037,583.040293040293,802.6373626373627,632.1978021978022,776.4468864468864,-0.651123,-0.041077,0.759949,4.089813,-1.958923,-2.145844,1,1,2,1,1,90.000000
2021-11-26 23:08:03.504,,,,,,,,,,,,,,,,,,,,,,,,,,,,,,,,,,,,,,/muse/elements/blink
2021-11-26 23:08:03.785,1.072685284372326,0,0.6672614245010312,1.655916471445598,1.1650364231838,0,0.1987628760371888,0.5315073684525369,1.222411200068805,0,0.3668876978341886,0.4067670609984483,1.158011752449587,0,0.6383111821621266,0.9147969257233618,0.7501385292865345,0,0.285810005047925,0.3015260780763435,737.7655677655678,741.7948717948718,799.4139194139194,804.2490842490843,770.4029304029305,-0.664062,-0.046509,0.761963,4.919739,-8.516083,-2.056122,1,2,4,1,2,90.000000
2021-11-26 23:08:04.789,1.072685284372326,0,0.4536738720590677,1.655916471445598,1.1650364231838,0,0.1646007339784799,0.5315073684525369,1.222411200068805,0,0.1029974480079987,0.4067670609984483,1.158011752449587,0,0.4099275677370094,0.9147969257233618,0.7501385292865345,0,0.1696915255912692,0.3015260780763435,853.8095238095239,705.934065934066,783.2967032967033,894.5054945054945,726.0805860805862,-0.680542,-0.038696,0.769287,4.373932,-3.813171,-1.958923,1,2,2,1,2,90.000000
2021-11-26 23:08:05.789,1.072685284372326,0,0.6462380972346432,1.232351405279754,1.1650364231838,0,-0.01846436692877165,0.7396491028269626,1.222411200068805,0,0.03243253861750302,0.6862440380959263,1.158011752449587,0,0.3995406517860703,0.8931436080220017,0.7501385292865345,0,0.2191158463520849,0.4240818644476265,824.3956043956044,470.2197802197803,778.8644688644689,771.6117216117216,884.8351648351648,-0.646729,-0.039551,0.754700,4.717865,-2.504730,-2.048645,1,1,2,1,1,90.000000
2021-11-26 23:08:06.472,,,,,,,,,,,,,,,,,,,,,,,,,,,,,,,,,,,,,,/muse/elements/blink
2021-11-26 23:08:06.562,,,,,,,,,,,,,,,,,,,,,,,,,,,,,,,,,,,,,,/muse/elements/jaw_clench
2021-11-26 23:08:06.761,,,,,,,,,,,,,,,,,,,,,,,,,,,,,,,,,,,,,,/muse/elements/blink
2021-11-26 23:08:06.784,1.072685284372326,0,0.5062309947767335,1.38278249229831,1.1650364231838,0,-0.0563628348799822,0.5396165254078428,1.222411200068805,0,0.7406862371087301,0.2959639124382756,1.158011752449587,0,0.6249503947571449,0.5198762515015289,0.7501385292865345,0,0.568550196474564,0.5470555383915092,790.5494505494506,713.992673992674,811.0989010989011,808.2783882783883,635.4212454212454,-0.725159,-0.103516,0.717834,6.878662,-8.276825,2.003784,1,1,2,1,1,90.000000
2021-11-26 23:08:07.358,,,,,,,,,,,,,,,,,,,,,,,,,,,,,,,,,,,,,,/muse/elements/blink
2021-11-26 23:08:07.707,,,,,,,,,,,,,,,,,,,,,,,,,,,,,,,,,,,,,,/muse/elements/blink
2021-11-26 23:08:07.785,1.072685284372326,0,0.7512776341817013,1.38278249229831,1.1650364231838,0,0.1367242483563906,0.5396165254078428,1.222411200068805,0,0.8086095393275824,0.2959639124382756,1.158011752449587,0,0.9694486648728734,0.5198762515015289,0.7501385292865345,0,0.8919046009114893,0.5470555383915092,536.7032967032967,718.8278388278388,813.1135531135532,796.1904761904763,831.6483516483516,-0.714355,-0.016785,0.727234,1.188812,-4.710388,1.667328,1,4,4,1,1,90.000000
2021-11-26 23:08:08.302,,,,,,,,,,,,,,,,,,,,,,,,,,,,,,,,,,,,,,/muse/elements/jaw_clench
2021-11-26 23:08:08.502,,,,,,,,,,,,,,,,,,,,,,,,,,,,,,,,,,,,,,/muse/elements/blink
2021-11-26 23:08:08.785,1.072685284372326,0,0.9468837327484658,1.38278249229831,1.1650364231838,0,0.1976542002734231,0.5396165254078428,1.222411200068805,0,0.357559223439107,0.2959639124382756,1.158011752449587,0,0.9526828994709808,0.5198762515015289,0.7501385292865345,0,0.7891535043323447,0.5470555383915092,925.934065934066,491.5750915750916,788.1318681318681,857.032967032967,633.8095238095239,-0.648071,0.019836,0.741028,2.968292,-5.854340,0.583191,1,4,4,1,1,90.000000
2021-11-26 23:08:09.182,,,,,,,,,,,,,,,,,,,,,,,,,,,,,,,,,,,,,,/muse/elements/blink
2021-11-26 23:08:09.753,,,,,,,,,,,,,,,,,,,,,,,,,,,,,,,,,,,,,,/muse/elements/blink
2021-11-26 23:08:09.786,1.072685284372326,0,1.176516111487936,1.38278249229831,1.1650364231838,0,0.4022173863610837,0.5396165254078428,1.222411200068805,0,0.3942824378247676,0.2959639124382756,1.158011752449587,0,0.5048912908889878,0.5198762515015289,0.7501385292865345,0,0.3135035650152992,0.5470555383915092,435.970695970696,401.7216117216117,801.4285714285714,954.9450549450549,755.0915750915751,-0.648987,0.016296,0.752014,3.865509,-4.702911,-4.179535,1,4,4,1,2,90.000000
2021-11-26 23:08:10.306,,,,,,,,,,,,,,,,,,,,,,,,,,,,,,,,,,,,,,/muse/elements/blink
2021-11-26 23:08:10.785,1.072685284372326,0,1.008164176996018,1.38278249229831,1.1650364231838,0,0.3259374927802852,0.5396165254078428,1.222411200068805,0,0.3490044841023623,0.2959639124382756,1.158011752449587,0,0.4073389625432977,0.5198762515015289,0.7501385292865345,0,0.3373276871881584,0.5470555383915092,492.3809523809524,238.5347985347985,807.0695970695971,712.3809523809524,794.5787545787546,-0.678345,0.010925,0.748596,3.887939,-3.200073,0.403748,1,4,4,1,2,90.000000
2021-11-26 23:08:11.008,,,,,,,,,,,,,,,,,,,,,,,,,,,,,,,,,,,,,,/muse/elements/jaw_clench
2021-11-26 23:08:11.098,,,,,,,,,,,,,,,,,,,,,,,,,,,,,,,,,,,,,,/muse/elements/blink
2021-11-26 23:08:11.427,,,,,,,,,,,,,,,,,,,,,,,,,,,,,,,,,,,,,,/muse/elements/blink
2021-11-26 23:08:11.785,1.072685284372326,0,0.279183297149187,1.38278249229831,1.1650364231838,0,-0.2123914143760219,0.5396165254078428,1.222411200068805,0,0.4124434691920215,0.2959639124382756,1.158011752449587,0,0.3853725150171339,0.5198762515015289,0.7501385292865345,0,0.3845067554776869,0.5470555383915092,1338.534798534798,1086.300366300366,794.5787545787546,807.8754578754579,591.5018315018315,-0.833252,-0.032349,0.728088,4.329071,-2.295380,7.416992,1,4,4,1,2,90.000000
2021-11-26 23:08:11.864,,,,,,,,,,,,,,,,,,,,,,,,,,,,,,,,,,,,,,/muse/elements/jaw_clench
2021-11-26 23:08:11.953,,,,,,,,,,,,,,,,,,,,,,,,,,,,,,,,,,,,,,/muse/elements/blink
2021-11-26 23:08:12.324,,,,,,,,,,,,,,,,,,,,,,,,,,,,,,,,,,,,,,/muse/elements/blink
2021-11-26 23:08:12.476,,,,,,,,,,,,,,,,,,,,,,,,,,,,,,,,,,,,,,/muse/elements/jaw_clench
2021-11-26 23:08:12.785,1.072685284372326,0,0.4543891600302506,1.38278249229831,1.1650364231838,0,-0.02211621458338853,0.5396165254078428,1.222411200068805,0,0.4354116112677875,0.2959639124382756,1.158011752449587,0,0.4545115264399067,0.5198762515015289,0.7501385292865345,0,0.3447477893260255,0.5470555383915092,1623.406593406593,951.3186813186813,798.6080586080586,820.3663003663004,682.1611721611722,-0.739624,0.040527,0.712280,1.330872,-2.586975,8.000183,1,4,4,1,2,90.000000
2021-11-26 23:08:12.939,,,,,,,,,,,,,,,,,,,,,,,,,,,,,,,,,,,,,,/muse/elements/blink
2021-11-26 23:08:13.356,,,,,,,,,,,,,,,,,,,,,,,,,,,,,,,,,,,,,,/muse/elements/blink
2021-11-26 23:08:13.787,1.072685284372326,0,0.711792511092635,1.38278249229831,1.1650364231838,0,0.09845052454149721,0.5396165254078428,1.222411200068805,0,0.2215676460134046,0.2959639124382756,1.158011752449587,0,0.6514783427705961,0.5198762515015289,0.7501385292865345,0,0.6820804993201992,0.5470555383915092,0,942.4542124542124,786.5201465201466,875.1648351648352,784.1025641025641,-0.746765,-0.007874,0.729187,5.271149,-11.746063,-18.235931,1,4,4,1,2,90.000000
2021-11-26 23:08:14.063,,,,,,,,,,,,,,,,,,,,,,,,,,,,,,,,,,,,,,/muse/elements/blink
2021-11-26 23:08:14.152,,,,,,,,,,,,,,,,,,,,,,,,,,,,,,,,,,,,,,/muse/elements/jaw_clench
2021-11-26 23:08:14.394,,,,,,,,,,,,,,,,,,,,,,,,,,,,,,,,,,,,,,/muse/elements/blink
2021-11-26 23:08:14.681,,,,,,,,,,,,,,,,,,,,,,,,,,,,,,,,,,,,,,/muse/elements/blink
2021-11-26 23:08:14.785,1.072685284372326,0,0.4207731062088032,1.38278249229831,1.1650364231838,0,0.1206691172592426,0.5396165254078428,1.222411200068805,0,0.3155640655630008,0.2959639124382756,1.158011752449587,0,0.7158233584141176,0.5198762515015289,0.7501385292865345,0,0.5466709607086777,0.5470555383915092,746.6300366300367,526.6300366300367,848.1684981684982,753.0769230769231,701.0989010989011,-0.756775,0.018738,0.725464,3.431854,-0.508423,-1.794434,1,4,4,1,2,90.000000
2021-11-26 23:08:15.386,,,,,,,,,,,,,,,,,,,,,,,,,,,,,,,,,,,,,,/muse/elements/blink
2021-11-26 23:08:15.608,,,,,,,,,,,,,,,,,,,,,,,,,,,,,,,,,,,,,,/muse/elements/blink
2021-11-26 23:08:15.785,1.072685284372326,0,1.329350313856309,1.38278249229831,1.1650364231838,0,0.4687171865257828,0.5396165254078428,1.222411200068805,0,0.8709875779484988,0.2959639124382756,1.158011752449587,0,0.9030694753651877,0.5198762515015289,0.7501385292865345,0,0.6227962867142952,0.5470555383915092,474.2490842490843,4.835164835164836,787.3260073260074,693.4432234432235,738.1684981684982,-0.681885,0.018188,0.676819,5.211334,-14.415283,1.226196,1,4,4,1,2,90.000000
2021-11-26 23:08:15.986,,,,,,,,,,,,,,,,,,,,,,,,,,,,,,,,,,,,,,/muse/elements/blink
2021-11-26 23:08:16.228,,,,,,,,,,,,,,,,,,,,,,,,,,,,,,,,,,,,,,/muse/elements/blink
2021-11-26 23:08:16.602,,,,,,,,,,,,,,,,,,,,,,,,,,,,,,,,,,,,,,/muse/elements/blink
2021-11-26 23:08:16.785,1.072685284372326,0,1.194230271822336,1.38278249229831,1.1650364231838,0,0.3801111069594343,0.5396165254078428,1.222411200068805,0,0.8400671679672195,0.2959639124382756,1.158011752449587,0,0.7924770068424223,0.5198762515015289,0.7501385292865345,0,0.7033596700432077,0.5470555383915092,181.3186813186813,1046.007326007326,776.0439560439561,751.4652014652015,695.0549450549451,-0.764038,0.036865,0.711975,3.648682,-9.802094,-3.566437,1,4,4,1,2,90.000000
2021-11-26 23:08:17.020,,,,,,,,,,,,,,,,,,,,,,,,,,,,,,,,,,,,,,/muse/elements/jaw_clench
2021-11-26 23:08:17.198,,,,,,,,,,,,,,,,,,,,,,,,,,,,,,,,,,,,,,/muse/elements/jaw_clench
2021-11-26 23:08:17.350,,,,,,,,,,,,,,,,,,,,,,,,,,,,,,,,,,,,,,/muse/elements/blink
2021-11-26 23:08:17.785,1.072685284372326,0,0.5032403150495446,1.38278249229831,1.1650364231838,0,0.2408595169250995,0.5396165254078428,1.222411200068805,0,0.3722945752883621,0.2959639124382756,1.158011752449587,0,0.7536614878644212,0.5198762515015289,0.7501385292865345,0,0.7044006676996458,0.5470555383915092,0,387.6190476190476,955.7509157509157,880.4029304029305,700.2930402930403,-0.751709,0.057434,0.739685,5.405731,-4.261780,-14.968567,1,4,4,1,2,90.000000
2021-11-26 23:08:17.963,,,,,,,,,,,,,,,,,,,,,,,,,,,,,,,,,,,,,,/muse/elements/jaw_clench
2021-11-26 23:08:18.250,,,,,,,,,,,,,,,,,,,,,,,,,,,,,,,,,,,,,,/muse/elements/jaw_clench
2021-11-26 23:08:18.557,,,,,,,,,,,,,,,,,,,,,,,,,,,,,,,,,,,,,,/muse/elements/jaw_clench
2021-11-26 23:08:18.667,,,,,,,,,,,,,,,,,,,,,,,,,,,,,,,,,,,,,,/muse/elements/blink
2021-11-26 23:08:18.756,,,,,,,,,,,,,,,,,,,,,,,,,,,,,,,,,,,,,,/muse/elements/jaw_clench
2021-11-26 23:08:18.785,1.072685284372326,0,0.5032403150495446,1.38278249229831,1.1650364231838,0,0.2408595169250995,0.5396165254078428,1.222411200068805,0,0.3722945752883621,0.2959639124382756,1.158011752449587,0,0.7536614878644212,0.5198762515015289,0.7501385292865345,0,0.7044006676996458,0.5470555383915092,799.4139194139194,0,830.0366300366301,796.1904761904763,711.1721611721612,-0.657288,0.028748,0.750000,0.710297,-6.609497,1.173859,1,4,4,1,2,90.000000
2021-11-26 23:08:18.845,,,,,,,,,,,,,,,,,,,,,,,,,,,,,,,,,,,,,,/muse/elements/blink
2021-11-26 23:08:18.934,,,,,,,,,,,,,,,,,,,,,,,,,,,,,,,,,,,,,,/muse/elements/jaw_clench
2021-11-26 23:08:19.174,,,,,,,,,,,,,,,,,,,,,,,,,,,,,,,,,,,,,,/muse/elements/jaw_clench
2021-11-26 23:08:19.798,1.072685284372326,0,1.804851491445736,1.38278249229831,1.1650364231838,0,0.8097951706409474,0.5396165254078428,1.222411200068805,0,0.5049677013751032,0.2959639124382756,1.158011752449587,0,0.7009577792274163,0.5198762515015289,0.7501385292865345,0,0.4865019668137122,0.5470555383915092,947.6923076923077,309.047619047619,785.3113553113553,772.8205128205128,796.1904761904763,-0.685486,0.011536,0.753967,0.889740,-8.194580,6.489868,1,4,4,1,2,90.000000
2021-11-26 23:08:20.784,1.072685284372326,0,1.261934574831026,1.38278249229831,1.1650364231838,0,0.4153091561379247,0.5396165254078428,1.222411200068805,0,0.5271694939079741,0.2959639124382756,1.158011752449587,0,0.5939381253331177,0.5198762515015289,0.7501385292865345,0,0.3262221837360985,0.5470555383915092,66.88644688644689,800.6227106227107,853.8095238095239,752.6739926739926,673.2967032967033,-0.692566,-0.005798,0.764221,-1.084137,2.489777,-6.788940,1,4,4,1,2,90.000000
2021-11-26 23:08:21.100,,,,,,,,,,,,,,,,,,,,,,,,,,,,,,,,,,,,,,/muse/elements/jaw_clench
2021-11-26 23:08:21.190,,,,,,,,,,,,,,,,,,,,,,,,,,,,,,,,,,,,,,/muse/elements/blink
2021-11-26 23:08:21.608,,,,,,,,,,,,,,,,,,,,,,,,,,,,,,,,,,,,,,/muse/elements/jaw_clench
2021-11-26 23:08:21.697,,,,,,,,,,,,,,,,,,,,,,,,,,,,,,,,,,,,,,/muse/elements/blink
2021-11-26 23:08:21.786,1.072685284372326,0,0.6786887370793876,1.38278249229831,1.1650364231838,0,0.1258948015021813,0.5396165254078428,1.222411200068805,0,0.2890063113085207,0.2959639124382756,1.158011752449587,0,0.3831601160640533,0.5198762515015289,0.7501385292865345,0,0.2805975155749252,0.5470555383915092,807.4725274725275,655.1648351648352,799.8168498168499,782.893772893773,755.0915750915751,-0.633362,-0.002686,0.762390,4.067383,-1.757050,1.854248,1,4,4,1,2,90.000000
2021-11-26 23:08:22.785,1.072685284372326,0,0.3743115275458157,1.38278249229831,1.1650364231838,0,-0.2210065439915861,0.5396165254078428,1.222411200068805,0,0.1660805225089791,0.2959639124382756,1.158011752449587,0,0.8088130132401515,0.5198762515015289,0.7501385292865345,0,0.5674412247587028,0.5470555383915092,742.6007326007326,589.8901098901099,796.5934065934066,757.5091575091575,738.1684981684982,-0.654846,-0.020935,0.782227,6.646881,-5.869293,-4.889832,1,2,4,1,2,90.000000
2021-11-26 23:08:23.709,,,,,,,,,,,,,,,,,,,,,,,,,,,,,,,,,,,,,,/muse/elements/blink
2021-11-26 23:08:23.785,1.072685284372326,0,0.4019597020106958,1.38278249229831,1.1650364231838,0,0.03907351807551796,0.5396165254078428,1.222411200068805,0,0.2855267023266313,0.2959639124382756,1.158011752449587,0,0.6680660928540805,0.5198762515015289,0.7501385292865345,0,0.4853837852567628,0.5470555383915092,764.3589743589744,751.8681318681319,782.4908424908425,153.5164835164835,642.6739926739926,-0.663757,-0.016968,0.782776,3.730927,-0.971985,-0.964508,1,2,4,1,2,90.000000
2021-11-26 23:08:24.785,1.072685284372326,0,0.6249565681678347,1.38278249229831,1.1650364231838,0,0.05388797986269817,0.5396165254078428,1.222411200068805,0,0.2079284143304666,0.2959639124382756,1.158011752449587,0,0.6471036628432459,0.5198762515015289,0.7501385292865345,0,0.4719643195484716,0.5470555383915092,839.7069597069598,740.989010989011,799.8168498168499,826.4102564102565,560.0732600732601,-0.642151,-0.023315,0.771545,5.502930,-6.205750,-2.362671,1,2,4,1,2,90.000000
2021-11-26 23:08:24.943,,,,,,,,,,,,,,,,,,,,,,,,,,,,,,,,,,,,,,/muse/elements/blink
2021-11-26 23:08:25.788,1.072685284372326,0,0.4702705993856111,1.38278249229831,1.1650364231838,0,-0.3834203908218479,0.5396165254078428,1.222411200068805,0,0.08092002964344285,0.2959639124382756,1.158011752449587,0,0.5596741338293606,0.5198762515015289,0.7501385292865345,0,0.3781321954101283,0.5470555383915092,813.5164835164835,454.1025641025641,798.6080586080586,813.1135531135532,826.007326007326,-0.654114,-0.020081,0.778015,4.658051,-7.835693,-1.629944,1,2,4,1,2,90.000000
2021-11-26 23:08:26.795,1.072685284372326,0,0.761481745100672,1.38278249229831,1.1650364231838,0,0.05064303522735207,0.5396165254078428,1.222411200068805,0,0.1970285356242323,0.2959639124382756,1.158011752449587,0,0.4363071417580601,0.5198762515015289,0.7501385292865345,0,0.2848225512582778,0.5470555383915092,691.4285714285714,667.2527472527473,778.8644688644689,641.4652014652015,592.7106227106227,-0.647339,-0.014526,0.773682,4.882355,-1.510315,-2.213135,1,2,4,1,2,90.000000
2021-11-26 23:08:26.960,,,,,,,,,,,,,,,,,,,,,,,,,,,,,,,,,,,,,,/muse/elements/blink
2021-11-26 23:08:27.785,1.072685284372326,0,0.5420262509701156,1.38278249229831,1.1650364231838,0,-0.1233413420692973,0.5396165254078428,1.222411200068805,0,0.2429681915639614,0.2959639124382756,1.158011752449587,0,0.3526735116399375,0.5198762515015289,0.7501385292865345,0,0.0600448644512819,0.5470555383915092,782.4908424908425,675.3113553113553,788.5347985347986,790.5494505494506,703.1135531135532,-0.632324,-0.017456,0.772217,4.822540,-6.250610,-1.659851,1,2,4,1,2,90.000000
2021-11-26 23:08:28.789,1.072685284372326,0,-0.01835895787404094,1.756477235504348,1.1650364231838,0,0.1264541537337572,1.054855363634522,1.222411200068805,0,0.1516133172991095,0.8421223548486151,1.158011752449587,0,0.4791633348484506,0.8441347544866751,0.7501385292865345,0,0.09185004117919573,0.5760207785829358,787.3260073260074,413.4065934065934,796.996336996337,780.0732600732601,881.6117216117217,-0.658203,-0.019043,0.785767,4.246826,-6.467438,-1.562653,1,1,4,1,1,90.000000
2021-11-26 23:08:29.396,,,,,,,,,,,,,,,,,,,,,,,,,,,,,,,,,,,,,,/muse/elements/blink
2021-11-26 23:08:29.785,1.072685284372326,0,-0.1643633575794453,1.787886210442417,1.1650364231838,0,-0.07855876265164233,1.033477216369251,1.222411200068805,0,-0.06651948511584374,0.8748031447522399,1.158011752449587,0,0.5482088343556313,0.9090672699645143,0.7501385292865345,0,0.1944992442178959,0.6602283385046624,693.4432234432235,726.4835164835165,768.3882783882784,799.4139194139194,655.9706959706959,-0.632202,-0.015198,0.789062,1.801910,-3.065491,-0.269165,1,1,4,1,1,90.000000
2021-11-26 23:08:30.450,,,,,,,,,,,,,,,,,,,,,,,,,,,,,,,,,,,,,,/muse/elements/blink
2021-11-26 23:08:30.786,1.072685284372326,0,-0.3187059201023275,1.361681317344784,1.1650364231838,0,-0.5938389743091473,0.699646468546663,1.222411200068805,0,-0.3014003335057256,0.79432572279768,1.158011752449587,0,0.5387391540896117,0.8369708802357985,0.7501385292865345,0,0.2371102310408496,0.5624237845112425,811.0989010989011,428.3150183150183,787.3260073260074,794.5787545787546,770.8058608058608,-0.622009,0.006165,0.781250,3.738403,-9.226379,-2.542114,1,1,4,1,1,90.000000
2021-11-26 23:08:31.451,,,,,,,,,,,,,,,,,,,,,,,,,,,,,,,,,,,,,,/muse/elements/blink
2021-11-26 23:08:31.793,1.072685284372326,0,1.282090157361171,1.361681317344784,1.1650364231838,0,0.9672623748484435,0.699646468546663,1.222411200068805,0,0.3415185661856565,0.79432572279768,1.158011752449587,0,0.8011970572121043,0.8369708802357985,0.7501385292865345,0,0.612535139449603,0.5624237845112425,744.6153846153846,584.2490842490843,804.2490842490843,801.8315018315019,787.7289377289378,-0.654724,-0.004639,0.789490,4.224396,-4.553375,-3.125305,1,1,4,1,1,90.000000
2021-11-26 23:08:32.784,1.072685284372326,0,1.075052473422111,1.361681317344784,1.1650364231838,0,0.722688272203366,0.699646468546663,1.222411200068805,0,0.3437101858953074,0.79432572279768,1.158011752449587,0,0.6588218407388162,0.8369708802357985,0.7501385292865345,0,0.4784567608891581,0.5624237845112425,725.2747252747253,807.0695970695971,806.2637362637363,803.040293040293,674.1025641025641,-0.623108,0.005554,0.794556,5.136566,-1.988831,-3.080444,1,2,2,1,2,90.000000
2021-11-26 23:08:33.051,,,,,,,,,,,,,,,,,,,,,,,,,,,,,,,,,,,,,,/muse/elements/blink
2021-11-26 23:08:33.785,1.072685284372326,0,1.479403725843042,1.361681317344784,1.1650364231838,0,0.7861657115231236,0.699646468546663,1.222411200068805,0,1.099145506927667,0.79432572279768,1.158011752449587,0,0.4000023652078015,0.8369708802357985,0.7501385292865345,0,0.3363170543045308,0.5624237845112425,787.3260073260074,152.7106227106227,800.6227106227107,785.3113553113553,1080.25641025641,-0.626160,0.005310,0.791565,4.889832,-9.742279,-1.891632,1,2,4,1,2,90.000000
2021-11-26 23:08:34.791,1.072685284372326,0,1.3699015069262,1.361681317344784,1.1650364231838,0,0.6305469152471452,0.699646468546663,1.222411200068805,0,1.09783356617481,0.79432572279768,1.158011752449587,0,0.6075119907613594,0.8369708802357985,0.7501385292865345,0,0.4091046508696283,0.5624237845112425,751.8681318681319,735.3479853479854,801.4285714285714,804.2490842490843,689.4139194139194,-0.647522,0.003296,0.796143,4.299164,-4.179535,-2.086029,1,2,4,1,2,90.000000
2021-11-26 23:08:34.869,,,,,,,,,,,,,,,,,,,,,,,,,,,,,,,,,,,,,,/muse/elements/blink
2021-11-26 23:08:35.743,,,,,,,,,,,,,,,,,,,,,,,,,,,,,,,,,,,,,,/muse/elements/blink
2021-11-26 23:08:35.785,1.072685284372326,0,0.1024692724226374,1.361681317344784,1.1650364231838,0,-0.09940218585608013,0.699646468546663,1.222411200068805,0,0.2546134442159473,0.79432572279768,1.158011752449587,0,0.5221311057925438,0.8369708802357985,0.7501385292865345,0,0.2089941692756077,0.5624237845112425,887.2527472527473,989.1941391941392,788.9377289377289,885.6410256410256,697.4725274725275,-0.632690,0.005798,0.791382,3.917847,-2.990723,-1.659851,1,2,4,1,2,90.000000
2021-11-26 23:08:36.784,1.072685284372326,0,1.454177999506865,1.361681317344784,1.1650364231838,0,0.8593319314300409,0.699646468546663,1.222411200068805,0,0.9507198640819825,0.79432572279768,1.158011752449587,0,0.3647073565704361,0.8369708802357985,0.7501385292865345,0,0.05333965101361957,0.5624237845112425,857.032967032967,849.3772893772895,791.7582417582418,795.7875457875458,707.1428571428571,-0.629333,0.003052,0.790588,4.747772,-10.796509,-1.689758,1,2,4,1,2,90.000000
2021-11-26 23:08:36.930,,,,,,,,,,,,,,,,,,,,,,,,,,,,,,,,,,,,,,/muse/elements/blink
2021-11-26 23:08:37.214,,,,,,,,,,,,,,,,,,,,,,,,,,,,,,,,,,,,,,/muse/elements/blink
2021-11-26 23:08:37.784,1.072685284372326,0,1.257290869924048,1.361681317344784,1.1650364231838,0,0.4321196698230717,0.699646468546663,1.222411200068805,0,0.497564656691125,0.79432572279768,1.158011752449587,0,0.2752743027655055,0.8369708802357985,0.7501385292865345,0,0.06522691690284348,0.5624237845112425,792.967032967033,418.6446886446886,802.2344322344322,817.948717948718,804.2490842490843,-0.621033,0.005310,0.791748,4.598236,-2.856140,-2.086029,1,2,4,1,2,90.000000
2021-11-26 23:08:38.785,1.072685284372326,0,1.152753901033412,0.6232945958395661,1.1650364231838,0,0.3931005103586289,0.08262375665558229,1.222411200068805,0,0.4344421441966981,0.5480912882871742,1.158011752449587,0,0.4322611896829258,0.7581129230127874,0.7501385292865345,0,0.2655219011575181,0.6050152330472786,717.2161172161173,800.6227106227107,799.8168498168499,789.7435897435897,655.5677655677656,-0.606750,-0.002869,0.788025,3.970184,-2.100983,-2.003784,1,2,2,1,2,90.000000
2021-11-26 23:08:39.791,1.072685284372326,0,0.3223589666431053,1.803266961266079,1.1650364231838,0,0.144745705587337,0.7819052044269406,1.222411200068805,0,0.4231625029508317,1.02364745122379,1.158011752449587,0,0.4780336342667415,0.8982557322168699,0.7501385292865345,0,0.2737809960102198,0.4668487028311227,778.0586080586081,621.3186813186813,788.5347985347986,798.2051282051282,703.5164835164835,-0.642090,0.001526,0.796448,4.396362,-8.770294,-0.957031,1,1,4,1,1,90.000000
2021-11-26 23:08:40.355,,,,,,,,,,,,,,,,,,,,,,,,,,,,,,,,,,,,,,/muse/elements/blink
2021-11-26 23:08:40.787,1.072685284372326,0,0.878958228031362,2.111855535816725,1.1650364231838,0,0.5890870086648454,1.015087995221527,1.222411200068805,0,0.6627503820361168,1.027716708509182,1.158011752449587,0,0.5150041360710174,0.9812673925410306,0.7501385292865345,0,0.1735686004463808,0.4566520561451833,734.9450549450549,688.2051282051282,796.996336996337,779.6703296703297,767.5824175824176,-0.649475,0.002502,0.794250,4.927216,-0.949554,-2.826233,1,1,4,1,1,90.000000
2021-11-26 23:08:41.785,1.072685284372326,0,0.9810490317241807,2.053482894411759,1.1650364231838,0,0.6770226508775871,0.8733819722372369,1.222411200068805,0,0.6627503820361168,0.7745186850142218,1.158011752449587,0,0.4534127133738646,0.9439864453931247,0.7501385292865345,0,0.1468078169908146,0.460218668392526,782.4908424908425,847.7655677655678,790.5494505494506,780.4761904761905,696.2637362637363,-0.614319,0.005005,0.785706,4.216919,-4.725342,-1.330872,1,1,4,1,1,90.000000
2021-11-26 23:08:42.612,,,,,,,,,,,,,,,,,,,,,,,,,,,,,,,,,,,,,,/muse/elements/blink
2021-11-26 23:08:42.785,1.072685284372326,0,0.4491443187631503,2.053482894411759,1.1650364231838,0,0.09247543826092001,0.8733819722372369,1.222411200068805,0,0.2232590319196912,0.7745186850142218,1.158011752449587,0,0.4786480050157974,0.9439864453931247,0.7501385292865345,0,0.3136572659165969,0.460218668392526,498.8278388278388,540.7326007326008,793.7728937728938,944.0659340659341,825.6043956043957,-0.631042,0.006897,0.761230,-1.136475,-0.276642,6.863708,1,1,4,1,1,90.000000
2021-11-26 23:08:42.791,,,,,,,,,,,,,,,,,,,,,,,,,,,,,,,,,,,,,,/muse/elements/blink
2021-11-26 23:08:43.210,,,,,,,,,,,,,,,,,,,,,,,,,,,,,,,,,,,,,,/muse/elements/blink
2021-11-26 23:08:43.409,,,,,,,,,,,,,,,,,,,,,,,,,,,,,,,,,,,,,,/muse/elements/blink
2021-11-26 23:08:43.717,,,,,,,,,,,,,,,,,,,,,,,,,,,,,,,,,,,,,,/muse/elements/blink
2021-11-26 23:08:43.793,1.072685284372326,0,1.33840427582901,2.053482894411759,1.1650364231838,0,0.3218775112254103,0.8733819722372369,1.222411200068805,0,0.1370459864757652,0.7745186850142218,1.158011752449587,0,0.4345308086453065,0.9439864453931247,0.7501385292865345,0,0.4238641005851399,0.460218668392526,639.8534798534798,727.6923076923077,807.4725274725275,817.5457875457876,743.8095238095239,-0.688110,-0.011292,0.764221,3.970184,1.248627,-7.723541,1,4,4,1,2,90.000000
2021-11-26 23:08:44.531,,,,,,,,,,,,,,,,,,,,,,,,,,,,,,,,,,,,,,/muse/elements/blink
2021-11-26 23:08:44.785,1.072685284372326,0,0.9801932525919853,2.053482894411759,1.1650364231838,0,0.2412035583099994,0.8733819722372369,1.222411200068805,0,0.07391005643660919,0.7745186850142218,1.158011752449587,0,0.4094741306587635,0.9439864453931247,0.7501385292865345,0,0.1890506914713329,0.460218668392526,807.8754578754579,729.3040293040293,803.4432234432235,831.6483516483516,686.996336996337,-0.547180,-0.025940,0.804504,9.458160,-8.770294,-0.740204,1,4,4,1,2,90.000000
2021-11-26 23:08:45.476,,,,,,,,,,,,,,,,,,,,,,,,,,,,,,,,,,,,,,/muse/elements/blink
2021-11-26 23:08:45.785,1.072685284372326,0,0.4392689817016148,2.053482894411759,1.1650364231838,0,-0.0668393256405989,0.8733819722372369,1.222411200068805,0,0.1187961834707944,0.7745186850142218,1.158011752449587,0,0.4215904830413993,0.9439864453931247,0.7501385292865345,0,0.3303882343985976,0.460218668392526,1114.908424908425,922.3076923076924,809.0842490842491,726.0805860805862,577.8021978021978,-0.656616,0.066406,0.882629,6.489868,-6.302948,-2.841187,1,4,4,1,2,90.000000
2021-11-26 23:08:46.447,,,,,,,,,,,,,,,,,,,,,,,,,,,,,,,,,,,,,,/muse/elements/blink
2021-11-26 23:08:46.785,1.072685284372326,0,0.888786336530816,2.053482894411759,1.1650364231838,0,0.3224991573146467,0.8733819722372369,1.222411200068805,0,0.2162830113736791,0.7745186850142218,1.158011752449587,0,0.5571557189491154,0.9439864453931247,0.7501385292865345,0,0.5280093982597913,0.460218668392526,974.2857142857143,971.4652014652015,850.989010989011,801.8315018315019,710.7692307692308,-0.631592,0.079041,0.826721,9.308624,4.800110,-0.157013,1,4,4,1,2,90.000000
2021-11-26 23:08:46.885,,,,,,,,,,,,,,,,,,,,,,,,,,,,,,,,,,,,,,/muse/elements/blink
2021-11-26 23:08:47.784,1.072685284372326,0,1.008147673271097,2.053482894411759,1.1650364231838,0,0.44535211758593,0.8733819722372369,1.222411200068805,0,0.05546633634909753,0.7745186850142218,1.158011752449587,0,0.4958191116926833,0.9439864453931247,0.7501385292865345,0,0.5313976944573381,0.460218668392526,229.2673992673993,1188.241758241758,795.7875457875458,745.0183150183151,674.9084249084249,-0.595764,0.104370,0.827087,2.938385,-6.654358,-15.267639,1,2,4,1,2,90.000000
2021-11-26 23:08:47.895,,,,,,,,,,,,,,,,,,,,,,,,,,,,,,,,,,,,,,/muse/elements/blink
2021-11-26 23:08:48.785,1.072685284372326,0,0.903600975727726,2.053482894411759,1.1650364231838,0,0.4665140940470184,0.8733819722372369,1.222411200068805,0,0.3642584235976838,0.7745186850142218,1.158011752449587,0,0.6174783314852631,0.9439864453931247,0.7501385292865345,0,0.4193659019658769,0.460218668392526,1016.190476190476,469.8168498168498,881.6117216117217,851.7948717948718,838.901098901099,-0.589600,0.070740,0.833801,4.800110,-3.132782,1.786957,1,2,4,1,2,90.000000
2021-11-26 23:08:49.789,1.072685284372326,0,1.005351836207856,1.486685535890507,1.1650364231838,0,0.4444984670441167,1.192972847259955,1.222411200068805,0,0.2554399412441198,0.7020669643832073,1.158011752449587,0,0.705958132138334,0.8842049706255032,0.7501385292865345,0,0.5349119234521491,0.6917332660440763,770.4029304029305,624.5421245421246,793.3699633699634,791.3553113553114,715.2014652014652,-0.566101,0.073242,0.820251,3.805695,-4.231873,-2.048645,1,2,2,1,2,90.000000
2021-11-26 23:08:50.784,1.072685284372326,0,2.102233665922334,1.072735402160845,1.1650364231838,0,1.140535351002508,0.7886850097368693,1.222411200068805,0,0.1279875030817335,0.9379373150682004,1.158011752449587,0,0.4899107647057112,0.7666619152284454,0.7501385292865345,0,0.06785993784678962,0.6159998699609862,763.5531135531136,724.8717948717949,790.5494505494506,764.3589743589744,766.7765567765568,-0.568054,0.071838,0.825378,4.583282,-6.594543,-1.929016,1,1,4,1,1,90.000000
