TimeStamp,Delta_TP9,Delta_AF7,Delta_AF8,Delta_TP10,Theta_TP9,Theta_AF7,Theta_AF8,Theta_TP10,Alpha_TP9,Alpha_AF7,Alpha_AF8,Alpha_TP10,Beta_TP9,Beta_AF7,Beta_AF8,Beta_TP10,Gamma_TP9,Gamma_AF7,Gamma_AF8,Gamma_TP10,RAW_TP9,RAW_AF7,RAW_AF8,RAW_TP10,AUX_RIGHT,Accelerometer_X,Accelerometer_Y,Accelerometer_Z,Gyro_X,Gyro_Y,Gyro_Z,HeadBandOn,HSI_TP9,HSI_AF7,HSI_AF8,HSI_TP10,Battery,Elements
2021-11-26 23:21:08.244,0.4296893450897729,2.129153033959885,2.187283513304116,0.8771684997242569,0.1519550656572634,0.9732180127312136,0.4963040243482385,0.2746469176437596,0.6041592332985231,0.6733192398508617,0.6957961556205089,1.417032981357663,0.7147419337091769,0.1164362751526039,0.06704807675293913,1.184257808453422,0.7459092712951857,-0.05753544663068004,-0.242244516884923,1.381897677066499,853.8095238095239,408.974358974359,806.2637362637363,877.985347985348,734.9450549450549,0.672363,0.119263,0.730225,3.813171,-6.138458,-1.629944,1,1,2,1,1,85.000000
2021-11-26 23:21:09.244,0.7654266131818952,2.129153033959885,1.232254252996747,1.01191292634185,0.4700154635093735,0.9732180127312136,0.2265488135868165,0.5623501030370097,0.5956542885844679,0.6733192398508617,-0.002625445898270972,0.9844650378330088,0.7696584436397499,0.1164362751526039,-0.04965337325350184,1.199135883900415,0.7975345650452019,-0.05753544663068004,-0.5926694383131613,1.2432843813077,818.3516483516484,242.1611721611722,807.8754578754579,830.4395604395604,717.6190476190476,0.685791,0.139038,0.731567,6.041260,-5.360870,-0.919647,1,1,4,1,1,85.000000
2021-11-26 23:21:10.244,0.6766126110739132,2.129153033959885,0.7252260520804708,0.6326643402699161,0.4581889888832306,0.9732180127312136,0.1707196539318628,0.4818994149101266,0.5398607204803393,0.6733192398508617,0.05290816780058297,0.6748435493563635,0.6380195462554265,0.1164362751526039,-0.1602773892479061,1.10868934496989,0.7605504999236804,-0.05753544663068004,-0.4143157529765031,1.050308804559938,814.3223443223443,1623.809523809524,800.6227106227107,838.901098901099,647.9120879120879,0.657288,0.157043,0.789001,4.456177,-3.753357,-6.736603,1,1,4,1,1,85.000000
2021-11-26 23:21:11.244,0.5991527198463501,2.129153033959885,0.7462302713977058,0.6468257475179172,0.2310777178741927,0.9732180127312136,0.01100429092571575,0.1138595609047341,0.2326403731411878,0.6733192398508617,0.1670533454378642,0.8251102238447251,0.5381112626678269,0.1164362751526039,-0.02010787933409607,1.036720369306178,0.6356455854631976,-0.05753544663068004,-0.2744522420479436,1.180168202382446,848.1684981684982,769.5970695970697,798.2051282051282,844.9450549450549,855.8241758241759,0.448914,0.295471,0.862427,6.803894,-6.534729,-1.966400,1,1,4,1,1,85.000000
2021-11-26 23:21:12.244,0.4552720040079271,2.129153033959885,0.5803994120346334,0.6408344118222511,0.3293856997713538,0.9732180127312136,-0.136393155429642,0.07494184914064569,0.5840490869063513,0.6733192398508617,0.1075538935332366,0.7385258944988631,0.5789851268037624,0.1164362751526039,0.01072062001053465,0.8727496737209597,0.6760697437945239,-0.05753544663068004,-0.4238107757513822,0.9316018761352181,838.4981684981685,1315.164835164835,798.6080586080586,801.8315018315019,623.7362637362637,0.419250,0.288818,0.870239,5.383301,-5.308533,-1.428070,1,1,4,1,1,85.000000
2021-11-26 23:21:13.250,0.7996608155142758,2.129153033959885,1.630127168067706,1.138487610699388,0.1124103258305277,0.9732180127312136,0.3851389811406567,0.3775295897526382,0.4484934224324748,0.6733192398508617,0.1279503209314722,0.7477250154932394,0.4774352977370743,0.1164362751526039,-0.05555370115501442,0.8631550734757102,0.5941749461548431,-0.05753544663068004,-0.5222151240502042,0.6726146568435114,840.5128205128206,0,921.9047619047619,790.1465201465202,727.2893772893773,0.383118,0.268616,0.956665,4.687958,-6.856232,3.865509,1,1,4,1,1,85.000000
2021-11-26 23:21:14.244,1.513296470197109,2.129153033959885,1.903709443547789,1.634254829864606,0.8441544661406982,0.9732180127312136,0.8247420717863203,1.178503086110405,0.366073916746505,0.6733192398508617,0.4821467468881622,1.003661664579727,0.5154699822911071,0.1164362751526039,0.08196930708094649,0.9585639427480949,0.5226288713437685,-0.05753544663068004,-0.3516394045782131,0.6813908142219826,833.2600732600733,114.029304029304,890.0732600732601,836.8864468864469,793.3699633699634,0.397888,0.259094,0.898254,-0.822449,-9.577789,-14.961090,1,1,4,1,1,85.000000
2021-11-26 23:21:15.251,1.10790152934465,2.129153033959885,1.731680387253935,1.593568192730775,0.6105462747242082,0.9732180127312136,0.7438414632946863,0.9284442330755917,0.5579925979080991,0.6733192398508617,0.4458417521325193,1.068754930518987,0.5916184149074488,0.1164362751526039,0.06043695642382423,0.8083260851765858,0.306322126987247,-0.05753544663068004,-0.3253687738670625,0.7972654167005901,814.7252747252747,1530.32967032967,807.4725274725275,699.4871794871796,772.8205128205128,0.492371,0.245117,0.870605,6.250610,-24.307098,-7.588959,1,1,4,1,1,85.000000
2021-11-26 23:21:15.901,,,,,,,,,,,,,,,,,,,,,,,,,,,,,,,,,,,,,,/muse/elements/blink
2021-11-26 23:21:16.244,1.024414151790244,2.129153033959885,1.596656488471056,1.757959744311092,0.4342051771622448,0.9732180127312136,0.5744646438762583,0.6310454132595054,0.5785165947102083,0.6733192398508617,0.2648362850074975,0.8392965533777653,0.7301995371247908,0.1164362751526039,0.08623217395139661,0.8668193157263917,0.5078490697300601,-0.05753544663068004,-0.4034480822680937,0.877284318832278,820.3663003663004,1620.18315018315,800.6227106227107,834.4688644688645,793.7728937728938,-0.092529,0.006409,0.981873,-3.192596,5.772095,-38.513031,1,1,4,1,1,90.000000
2021-11-26 23:21:16.781,,,,,,,,,,,,,,,,,,,,,,,,,,,,,,,,,,,,,,/muse/elements/jaw_clench
2021-11-26 23:21:17.197,,,,,,,,,,,,,,,,,,,,,,,,,,,,,,,,,,,,,,/muse/elements/blink
2021-11-26 23:21:17.251,1.035045561621517,2.129153033959885,2.083892826629748,2.025988943787679,0.06863275393921178,0.9732180127312136,0.7743322641955825,0.7526919719108738,0.5015869683411813,0.6733192398508617,0.4319966972863816,0.7587514123314463,0.6889350028193462,0.1164362751526039,0.1801750757642544,0.8961591266413511,0.6084838456960756,-0.05753544663068004,-0.2422710757650594,0.8154445517526676,801.4285714285714,1623.406593406593,1053.260073260073,716.8131868131868,792.5641025641025,-0.254395,0.368225,1.011414,-17.675171,32.868042,60.427551,1,1,4,1,1,90.000000
2021-11-26 23:21:17.484,,,,,,,,,,,,,,,,,,,,,,,,,,,,,,,,,,,,,,/muse/elements/blink
2021-11-26 23:21:17.724,,,,,,,,,,,,,,,,,,,,,,,,,,,,,,,,,,,,,,/muse/elements/blink
2021-11-26 23:21:18.244,1.035045561621517,2.129153033959885,2.331448800924854,2.025988943787679,0.06863275393921178,0.9732180127312136,0.8843060111483489,0.7526919719108738,0.5015869683411813,0.6733192398508617,0.4264041025133366,0.7587514123314463,0.6889350028193462,0.1164362751526039,0.2243670494425789,0.8961591266413511,0.6084838456960756,-0.05753544663068004,-0.1099243691604285,0.8154445517526676,826.4102564102565,1630.659340659341,1050.03663003663,809.8901098901099,695.0549450549451,-0.136169,0.250366,0.972473,0.620575,-25.548248,20.277100,1,1,4,1,1,90.000000
2021-11-26 23:21:19.244,1.317509084301259,2.129153033959885,2.331448800924854,1.154599191341415,1.208534423722354,0.9732180127312136,0.8843060111483489,0.9503047046530414,0.8795285600262338,0.6733192398508617,0.4264041025133366,0.778942909249482,0.9096874183659215,0.1164362751526039,0.2243670494425789,0.871622769454949,0.4516075351037588,-0.05753544663068004,-0.1099243691604285,0.7917183655722235,808.2783882783883,250.2197802197802,787.7289377289378,728.0952380952381,761.5384615384615,-0.350220,0.076538,0.919067,18.452759,0.097198,28.322144,1,1,4,1,1,90.000000
2021-11-26 23:21:20.244,1.058894025643556,2.129153033959885,2.178673319413494,1.154599191341415,1.103037811390887,0.9732180127312136,0.5677628341993607,0.9503047046530414,0.9860075775929665,0.6733192398508617,0.6376354686003046,0.778942909249482,0.7973486984062366,0.1164362751526039,0.4358422425014868,0.871622769454949,0.3075776417830481,-0.05753544663068004,0.04283503485804176,0.7917183655722235,851.3919413919414,0,3.223443223443224,1068.168498168498,768.7912087912088,0.167664,0.162537,0.931396,3.499146,-38.370972,-5.652466,1,1,4,1,1,90.000000
2021-11-26 23:21:21.250,1.11879503443706,2.129153033959885,2.366838577502321,1.154599191341415,0.7255871518571944,0.9732180127312136,0.5959927315567798,0.9503047046530414,0.6838474302869604,0.6733192398508617,0.4176457999380064,0.778942909249482,0.8396603754121258,0.1164362751526039,0.3785370636385125,0.871622769454949,0.3809289046437593,-0.05753544663068004,-0.005318999587169988,0.7917183655722235,786.5201465201466,671.6849816849817,526.6300366300367,457.3260073260074,905.3846153846154,0.066162,0.417053,0.935059,2.444916,-13.899384,45.668335,1,1,4,1,2,90.000000
2021-11-26 23:21:21.477,,,,,,,,,,,,,,,,,,,,,,,,,,,,,,,,,,,,,,/muse/elements/blink
2021-11-26 23:21:21.653,,,,,,,,,,,,,,,,,,,,,,,,,,,,,,,,,,,,,,/muse/elements/blink
2021-11-26 23:21:21.981,,,,,,,,,,,,,,,,,,,,,,,,,,,,,,,,,,,,,,/muse/elements/blink
2021-11-26 23:21:22.179,,,,,,,,,,,,,,,,,,,,,,,,,,,,,,,,,,,,,,/muse/elements/jaw_clench
2021-11-26 23:21:22.244,1.266767255998207,2.129153033959885,2.366838577502321,1.154599191341415,0.7714142038978389,0.9732180127312136,0.5959927315567798,0.9503047046530414,0.6661265263022461,0.6733192398508617,0.4176457999380064,0.778942909249482,0.9228188391036283,0.1164362751526039,0.3785370636385125,0.871622769454949,0.4258865276794322,-0.05753544663068004,-0.005318999587169988,0.7917183655722235,841.3186813186813,330.4029304029304,875.9706959706959,860.2564102564103,971.4652014652015,0.215149,-0.036133,1.005249,-0.710297,-12.089996,11.140442,1,1,4,1,2,90.000000
2021-11-26 23:21:22.267,,,,,,,,,,,,,,,,,,,,,,,,,,,,,,,,,,,,,,/muse/elements/blink
2021-11-26 23:21:22.767,,,,,,,,,,,,,,,,,,,,,,,,,,,,,,,,,,,,,,/muse/elements/blink
2021-11-26 23:21:22.876,,,,,,,,,,,,,,,,,,,,,,,,,,,,,,,,,,,,,,/muse/elements/jaw_clench
2021-11-26 23:21:23.073,,,,,,,,,,,,,,,,,,,,,,,,,,,,,,,,,,,,,,/muse/elements/blink
2021-11-26 23:21:23.244,1.266767255998207,2.129153033959885,2.366838577502321,1.154599191341415,0.7714142038978389,0.9732180127312136,0.5959927315567798,0.9503047046530414,0.6661265263022461,0.6733192398508617,0.4176457999380064,0.778942909249482,0.9228188391036283,0.1164362751526039,0.3785370636385125,0.871622769454949,0.4258865276794322,-0.05753544663068004,-0.005318999587169988,0.7917183655722235,1285.347985347985,0,0,519.7802197802198,701.9047619047619,0.126465,-0.391907,0.913696,-11.103058,17.420959,-9.869385,1,2,4,1,2,90.000000
2021-11-26 23:21:23.401,,,,,,,,,,,,,,,,,,,,,,,,,,,,,,,,,,,,,,/muse/elements/blink
2021-11-26 23:21:23.490,,,,,,,,,,,,,,,,,,,,,,,,,,,,,,,,,,,,,,/muse/elements/jaw_clench
2021-11-26 23:21:23.906,,,,,,,,,,,,,,,,,,,,,,,,,,,,,,,,,,,,,,/muse/elements/blink
2021-11-26 23:21:24.104,,,,,,,,,,,,,,,,,,,,,,,,,,,,,,,,,,,,,,/muse/elements/jaw_clench
2021-11-26 23:21:24.194,,,,,,,,,,,,,,,,,,,,,,,,,,,,,,,,,,,,,,/muse/elements/blink
2021-11-26 23:21:24.246,1.266767255998207,2.129153033959885,2.366838577502321,1.154599191341415,0.7714142038978389,0.9732180127312136,0.5959927315567798,0.9503047046530414,0.6661265263022461,0.6733192398508617,0.4176457999380064,0.778942909249482,0.9228188391036283,0.1164362751526039,0.3785370636385125,0.871622769454949,0.4258865276794322,-0.05753544663068004,-0.005318999587169988,0.7917183655722235,976.7032967032967,1271.245421245421,388.8278388278388,978.3150183150184,919.0842490842491,0.178833,-0.420288,0.930725,2.086029,-7.753448,-9.428253,1,2,2,4,2,90.000000
2021-11-26 23:21:24.284,,,,,,,,,,,,,,,,,,,,,,,,,,,,,,,,,,,,,,/muse/elements/jaw_clench
2021-11-26 23:21:25.243,1.266767255998207,2.129153033959885,2.366838577502321,1.154599191341415,0.7714142038978389,0.9732180127312136,0.5959927315567798,0.9503047046530414,0.6661265263022461,0.6733192398508617,0.4176457999380064,0.778942909249482,0.9228188391036283,0.1164362751526039,0.3785370636385125,0.871622769454949,0.4258865276794322,-0.05753544663068004,-0.005318999587169988,0.7917183655722235,1347.802197802198,1070.586080586081,1623.809523809524,1623.809523809524,701.0989010989011,0.240173,-0.442810,0.872070,3.566437,-6.183319,-4.501038,1,2,2,4,4,90.000000
2021-11-26 23:21:25.308,,,,,,,,,,,,,,,,,,,,,,,,,,,,,,,,,,,,,,/muse/elements/blink
2021-11-26 23:21:25.397,,,,,,,,,,,,,,,,,,,,,,,,,,,,,,,,,,,,,,/muse/elements/jaw_clench
2021-11-26 23:21:25.724,,,,,,,,,,,,,,,,,,,,,,,,,,,,,,,,,,,,,,/muse/elements/blink
2021-11-26 23:21:25.724,,,,,,,,,,,,,,,,,,,,,,,,,,,,,,,,,,,,,,/muse/elements/jaw_clench
2021-11-26 23:21:25.923,,,,,,,,,,,,,,,,,,,,,,,,,,,,,,,,,,,,,,/muse/elements/blink
2021-11-26 23:21:26.244,1.266767255998207,2.129153033959885,2.366838577502321,1.154599191341415,0.7714142038978389,0.9732180127312136,0.5959927315567798,0.9503047046530414,0.6661265263022461,0.6733192398508617,0.4176457999380064,0.778942909249482,0.9228188391036283,0.1164362751526039,0.3785370636385125,0.871622769454949,0.4258865276794322,-0.05753544663068004,-0.005318999587169988,0.7917183655722235,898.9377289377289,1423.956043956044,1089.120879120879,842.5274725274726,636.6300366300367,-0.077576,0.105530,0.981262,60.928497,47.567444,-58.064880,1,2,2,4,4,90.000000
2021-11-26 23:21:26.336,,,,,,,,,,,,,,,,,,,,,,,,,,,,,,,,,,,,,,/muse/elements/blink
2021-11-26 23:21:26.620,,,,,,,,,,,,,,,,,,,,,,,,,,,,,,,,,,,,,,/muse/elements/jaw_clench
2021-11-26 23:21:27.244,1.266767255998207,2.129153033959885,2.366838577502321,1.154599191341415,0.7714142038978389,0.9732180127312136,0.5959927315567798,0.9503047046530414,0.6661265263022461,0.6733192398508617,0.4176457999380064,0.778942909249482,0.9228188391036283,0.1164362751526039,0.3785370636385125,0.871622769454949,0.4258865276794322,-0.05753544663068004,-0.005318999587169988,0.7917183655722235,799.8168498168499,1030.695970695971,1193.479853479854,749.047619047619,585.8608058608058,-0.634338,0.538574,0.658325,-71.186676,-13.974152,93.975983,1,2,4,2,2,85.000000
2021-11-26 23:21:27.471,,,,,,,,,,,,,,,,,,,,,,,,,,,,,,,,,,,,,,/muse/elements/blink
2021-11-26 23:21:27.471,,,,,,,,,,,,,,,,,,,,,,,,,,,,,,,,,,,,,,/muse/elements/jaw_clench
2021-11-26 23:21:28.243,1.266767255998207,2.129153033959885,2.366838577502321,1.154599191341415,0.7714142038978389,0.9732180127312136,0.5959927315567798,0.9503047046530414,0.6661265263022461,0.6733192398508617,0.4176457999380064,0.778942909249482,0.9228188391036283,0.1164362751526039,0.3785370636385125,0.871622769454949,0.4258865276794322,-0.05753544663068004,-0.005318999587169988,0.7917183655722235,836.8864468864469,862.2710622710623,957.3626373626374,965.0183150183151,1162.857142857143,-0.470459,0.286987,0.843811,41.929932,-3.820648,-70.708160,1,2,4,1,2,85.000000
2021-11-26 23:21:29.244,0.8067144233715242,2.129153033959885,2.366838577502321,1.154599191341415,0.7295521827026814,0.9732180127312136,0.5959927315567798,0.9503047046530414,0.399098112036708,0.6733192398508617,0.4176457999380064,0.778942909249482,0.8406639357414659,0.1164362751526039,0.3785370636385125,0.871622769454949,0.5566694946785471,-0.05753544663068004,-0.005318999587169988,0.7917183655722235,801.8315018315019,440.8058608058608,861.4652014652015,816.3369963369963,872.7472527472528,-0.426636,0.280518,0.866272,-19.342499,-9.323578,31.021271,1,1,4,1,1,85.000000
2021-11-26 23:21:29.489,,,,,,,,,,,,,,,,,,,,,,,,,,,,,,,,,,,,,,/muse/elements/jaw_clench
2021-11-26 23:21:29.908,,,,,,,,,,,,,,,,,,,,,,,,,,,,,,,,,,,,,,/muse/elements/jaw_clench
2021-11-26 23:21:30.197,,,,,,,,,,,,,,,,,,,,,,,,,,,,,,,,,,,,,,/muse/elements/blink
2021-11-26 23:21:30.251,0.8497361585622789,2.129153033959885,2.366838577502321,1.154599191341415,0.6979312907387389,0.9732180127312136,0.5959927315567798,0.9503047046530414,0.9365863002323447,0.6733192398508617,0.4176457999380064,0.778942909249482,1.013723818324022,0.1164362751526039,0.3785370636385125,0.871622769454949,0.7265469639705935,-0.05753544663068004,-0.005318999587169988,0.7917183655722235,270.7692307692308,1042.783882783883,897.7289377289378,83.80952380952381,0,-0.721619,0.268921,1.197144,47.223511,-11.073151,-56.853638,1,1,4,1,1,85.000000
2021-11-26 23:21:30.526,,,,,,,,,,,,,,,,,,,,,,,,,,,,,,,,,,,,,,/muse/elements/blink
2021-11-26 23:21:30.704,,,,,,,,,,,,,,,,,,,,,,,,,,,,,,,,,,,,,,/muse/elements/blink
2021-11-26 23:21:31.243,0.7816635139110554,2.129153033959885,2.366838577502321,1.154599191341415,0.6632293993395668,0.9732180127312136,0.5959927315567798,0.9503047046530414,0.9365863002323447,0.6733192398508617,0.4176457999380064,0.778942909249482,1.229247244501966,0.1164362751526039,0.3785370636385125,0.871622769454949,0.8509319854384059,-0.05753544663068004,-0.005318999587169988,0.7917183655722235,856.6300366300367,70.10989010989012,842.9304029304029,875.9706959706959,849.7802197802198,-0.199768,0.041260,0.888916,18.258362,-34.213867,-60.345306,1,1,4,2,2,85.000000
2021-11-26 23:21:32.246,1.045000583968819,2.129153033959885,2.366838577502321,1.154599191341415,0.5771099381831297,0.9732180127312136,0.5959927315567798,0.9503047046530414,1.052026255927338,0.6733192398508617,0.4176457999380064,0.778942909249482,1.166813083621311,0.1164362751526039,0.3785370636385125,0.871622769454949,0.7537582615540134,-0.05753544663068004,-0.005318999587169988,0.7917183655722235,768.7912087912088,207.9120879120879,826.007326007326,778.0586080586081,890.0732600732601,-0.270569,0.381287,1.075867,-2.669220,-8.456268,-6.669312,1,1,4,1,1,85.000000
2021-11-26 23:21:33.253,1.486964501449435,2.129153033959885,2.366838577502321,1.211073356311439,0.7190355469585792,0.9732180127312136,0.5959927315567798,1.154781261632753,1.083844968371079,0.6733192398508617,0.4176457999380064,0.254995002400192,1.088139008714413,0.1164362751526039,0.3785370636385125,1.152969068614167,0.719341591903906,-0.05753544663068004,-0.005318999587169988,0.9437420639170861,799.4139194139194,516.1538461538462,806.6666666666667,745.4212454212454,706.3369963369963,-0.155090,0.356567,0.940369,14.131165,-26.834259,-64.666901,1,1,4,1,1,85.000000
2021-11-26 23:21:34.243,1.375167222514387,2.129153033959885,1.534127024055751,1.211073356311439,0.9873259831999138,0.9732180127312136,0.933310977076758,1.154781261632753,1.003335331146173,0.6733192398508617,0.5569647163308075,0.254995002400192,1.137119615225415,0.1164362751526039,0.6269294368113847,1.152969068614167,0.9103593910533293,-0.05753544663068004,0.3110979981071295,0.9437420639170861,768.3882783882784,177.2893772893773,819.96336996337,636.2271062271062,704.7252747252747,0.248962,0.155457,0.996948,0.672913,-10.751648,-55.014343,1,1,4,1,1,85.000000
2021-11-26 23:21:35.243,1.096055023210537,2.129153033959885,1.835949235550288,1.211073356311439,0.8488837401193075,0.9732180127312136,1.11330512849101,1.154781261632753,0.9723423901325371,0.6733192398508617,0.3467477308696437,0.254995002400192,1.114528822246658,0.1164362751526039,0.6117474225352993,1.152969068614167,0.9457701435695273,-0.05753544663068004,-0.09475685224802857,0.9437420639170861,796.996336996337,276.007326007326,771.2087912087912,688.2051282051282,741.7948717948718,0.425049,0.022217,0.799255,-9.779663,-21.249084,-16.905060,1,1,4,1,1,85.000000
2021-11-26 23:21:35.999,,,,,,,,,,,,,,,,,,,,,,,,,,,,,,,,,,,,,,/muse/elements/blink
2021-11-26 23:21:36.253,0.9771717897612729,2.129153033959885,1.501112150285204,1.211073356311439,0.7414369044092435,0.9732180127312136,0.7815239098604108,1.154781261632753,0.8605752570746084,0.6733192398508617,0.8410191497235053,0.254995002400192,0.982421037416834,0.1164362751526039,0.5496749835584158,1.152969068614167,0.7299861308142219,-0.05753544663068004,0.1332633641139659,0.9437420639170861,807.8754578754579,557.2527472527472,776.8498168498169,769.1941391941392,630.1831501831502,0.523987,0.211853,0.843750,2.601929,-5.465546,-1.218719,1,1,4,1,1,85.000000
2021-11-26 23:21:37.243,0.5301754526877417,2.129153033959885,1.161125095356986,1.157431926466706,0.06346083993116491,0.9732180127312136,0.4249272298757901,0.2788161754693477,0.7036412453048446,0.6733192398508617,0.8478895564410964,0.3735456240986049,0.7758907394480377,0.1164362751526039,0.4553062904391094,0.7842476464970048,0.4908692030701287,-0.05753544663068004,0.0980027470316559,0.6310265745980609,801.4285714285714,462.967032967033,801.025641025641,753.0769230769231,776.8498168498169,0.508118,0.128540,0.853333,5.443115,-5.577698,3.603821,1,1,4,1,1,90.000000
2021-11-26 23:21:38.243,0.3691480613194004,2.129153033959885,1.22101730812646,0.9306633206248028,0.01603607093337586,0.9732180127312136,0.2624943411358807,0.2878472731706104,0.7043729899037312,0.6733192398508617,0.806497916792585,0.4445054380617111,0.6778005401422873,0.1164362751526039,0.3383462067656954,0.6746277499822212,0.4008561137649883,-0.05753544663068004,-0.07449960576177163,0.5950549294274065,795.7875457875458,520.989010989011,737.7655677655678,761.1355311355312,799.4139194139194,0.568237,0.105957,0.851379,6.467438,-9.861908,-4.501038,1,1,2,1,1,90.000000
2021-11-26 23:21:39.243,0.5371164688992193,2.129153033959885,1.666738708105002,0.9506109341747701,0.3513303135662495,0.9732180127312136,0.5934960526565215,0.4053034383835447,0.8331204746312182,0.6733192398508617,0.8248277988242751,0.4957160461534164,0.7023232204993476,0.1164362751526039,0.4509387283472984,0.6602768739335654,0.5884537079048416,-0.05753544663068004,-0.1084126621132474,0.5827998492053816,813.1135531135532,839.7069597069598,806.2637362637363,751.8681318681319,749.047619047619,0.544861,0.084167,0.844849,6.160889,-1.540222,2.773895,1,1,2,1,1,90.000000
2021-11-26 23:21:40.249,0.6102907432535483,2.129153033959885,1.606459549352868,0.9886715083038627,0.3546582428412489,0.9732180127312136,0.583998089084201,0.3375617572114432,0.8317136052332156,0.6733192398508617,0.7020932504008959,0.5997301011283417,0.7799826824211772,0.1164362751526039,0.3769007648470294,0.5500873223134731,0.7694200472718082,-0.05753544663068004,-0.08924217103887364,0.5436764694244359,790.5494505494506,348.1318681318681,791.7582417582418,744.2124542124542,963.8095238095239,0.714661,0.043396,0.924377,13.637695,51.746979,10.759125,1,1,4,1,1,90.000000
2021-11-26 23:21:40.552,,,,,,,,,,,,,,,,,,,,,,,,,,,,,,,,,,,,,,/muse/elements/blink
2021-11-26 23:21:41.251,0.3851235844697633,2.129153033959885,1.414762987708936,0.7520269422305816,0.1165078664047044,0.9732180127312136,0.6394529126492302,0.130720063092121,0.7895015952231929,0.6733192398508617,0.2867353341508761,0.4669544998226718,0.8061277868037902,0.1164362751526039,0.3872091058552027,0.4379270474849373,0.8469464461303392,-0.05753544663068004,-0.1688114486476378,0.3508621416971123,740.1831501831502,516.5567765567765,830.0366300366301,660,855.0183150183151,-0.309082,-0.027283,0.873169,1.772003,-1.786957,35.365295,1,1,4,1,1,90.000000
2021-11-26 23:21:42.249,1.035001587559809,2.129153033959885,1.368455888568636,0.7279076706350733,1.444391992703772,0.9732180127312136,0.7251603925935706,0.1729484285723142,1.014209548638289,0.6733192398508617,0.2727234977439227,0.4462374155552248,0.6282119718496373,0.1164362751526039,0.3772156535673583,0.426306033513657,0.4442213950358704,-0.05753544663068004,-0.2111130858839665,0.339046625324166,785.7142857142858,1002.490842490843,823.1868131868132,767.985347985348,662.014652014652,-0.513123,0.193298,1.003662,13.510590,-4.119720,-9.914246,1,1,4,1,1,90.000000
2021-11-26 23:21:43.243,1.077870162586153,2.129153033959885,1.146767867675153,1.292995198153911,1.116056439403512,0.9732180127312136,0.5977619573267208,0.7914876779968247,1.002324611631357,0.6733192398508617,1.054828106467143,0.3706591039798645,0.5277790380177865,0.1164362751526039,0.8202204329969258,0.6262501072632083,0.3886360999660175,-0.05753544663068004,0.2615475744250025,0.5278047407018901,811.0989010989011,1061.721611721612,844.1391941391942,844.1391941391942,937.6190476190476,-0.268127,0.264404,1.321533,-4.000092,-8.874969,-26.580048,1,1,4,1,1,90.000000
2021-11-26 23:21:44.252,0.8716847692697198,2.129153033959885,1.287290169425543,0.6948316119279679,0.3981646561229396,0.9732180127312136,0.6457077968546415,0.6028662564794832,0.7281556343629394,0.6733192398508617,1.086278999051433,0.8098801112885722,0.8387528805549777,0.1164362751526039,0.8612165279896415,0.6993202267793768,0.5275601521277633,-0.05753544663068004,0.3484095176079982,0.49676321299662,839.3040293040293,889.2673992673992,819.5604395604396,857.032967032967,815.5311355311355,-0.282471,0.321777,0.898743,15.013428,-22.998657,-33.054962,1,1,4,1,1,90.000000
2021-11-26 23:21:45.255,0.6280424990815566,2.129153033959885,1.170910314734495,0.6867003389498527,0.3734853024890828,0.9732180127312136,0.5612115096300951,0.414788702357103,0.5270000444368607,0.6733192398508617,0.9778382243018627,0.8329442197850558,1.034900801536446,0.1164362751526039,0.6491625976511746,0.8110528832671244,0.9889508617870881,-0.05753544663068004,0.1097985722875561,0.3607069246343397,813.919413919414,855.8241758241759,829.2307692307693,817.1428571428571,832.4542124542124,-0.260437,0.595032,0.894043,7.588959,-31.529694,-54.371338,1,1,4,1,1,90.000000
2021-11-26 23:21:45.947,,,,,,,,,,,,,,,,,,,,,,,,,,,,,,,,,,,,,,/muse/elements/blink
2021-11-26 23:21:46.243,0.8977959943003087,2.129153033959885,1.143272097798828,1.207201049318061,0.5196981327417267,0.9732180127312136,0.2911649004041325,0.5980916287727884,0.5396854651001163,0.6733192398508617,0.6946428923960108,0.6051814887061332,1.011876295791143,0.1164362751526039,0.436381884064845,0.7921921624688342,1.200379287513536,-0.05753544663068004,-0.05158397522091144,0.3752980000285314,817.5457875457876,875.9706959706959,813.1135531135532,842.1245421245421,790.5494505494506,-0.109070,0.012146,0.661499,12.658234,-3.087921,-4.725342,1,1,4,1,1,90.000000
2021-11-26 23:21:46.743,,,,,,,,,,,,,,,,,,,,,,,,,,,,,,,,,,,,,,/muse/elements/blink
2021-11-26 23:21:47.157,,,,,,,,,,,,,,,,,,,,,,,,,,,,,,,,,,,,,,/muse/elements/blink
2021-11-26 23:21:47.246,1.130007780967494,2.129153033959885,1.416561831915662,1.471958931539864,0.5134978281320774,0.9732180127312136,0.6856086534710902,0.693611420649569,0.3772257498774459,0.6733192398508617,0.951571680331784,0.4830240668749395,1.061450813862437,0.1164362751526039,0.7508437088465195,0.8028369473262486,1.204076211221914,-0.05753544663068004,0.02682332189093493,0.4264556884571868,822.7838827838829,791.3553113553114,805.0549450549451,848.5714285714286,1043.589743589744,-0.465698,0.116943,0.906616,10.639496,5.615082,-18.609772,1,1,4,1,1,90.000000
2021-11-26 23:21:48.243,1.130007780967494,2.129153033959885,1.646303365552963,1.471958931539864,0.5134978281320774,0.9732180127312136,0.7131890866355513,0.693611420649569,0.3772257498774459,0.6733192398508617,1.077241843637185,0.4830240668749395,1.061450813862437,0.1164362751526039,0.8158038423704187,0.8028369473262486,1.204076211221914,-0.05753544663068004,0.2948229406422886,0.4264556884571868,798.2051282051282,658.3882783882784,806.2637362637363,798.6080586080586,785.3113553113553,-0.389709,0.113586,0.858704,6.609497,9.181519,7.327271,1,1,4,1,1,90.000000
2021-11-26 23:21:49.249,1.471741288681778,2.129153033959885,1.547517610865186,1.403699991014274,1.024648571760519,0.9732180127312136,0.6651791123076306,1.323456663734378,0.7958836738630983,0.6733192398508617,1.360345461160497,1.048505951098866,0.5516614630704576,0.1164362751526039,0.9242399418266043,1.008209521696076,0.2127972553301887,-0.05753544663068004,0.4918371372152699,0.1251437195374155,801.025641025641,313.8827838827839,785.7142857142858,860.2564102564103,880,-0.169312,0.138733,0.882568,8.860016,-22.624817,-14.475098,1,1,4,1,1,90.000000
2021-11-26 23:21:50.244,1.496054483435173,2.129153033959885,1.736439018962945,1.991001585487788,0.9365297756801398,0.9732180127312136,0.8851337525611009,0.8322762283814815,0.7494657804820086,0.6733192398508617,1.418296296656354,0.9965404315767501,0.6325243633119269,0.1164362751526039,0.7658211077091263,0.8691202807592626,0.5853255852266963,-0.05753544663068004,0.3303305135609579,0.4796257631759667,794.1758241758242,1008.131868131868,812.7106227106227,817.1428571428571,846.5567765567765,0.252380,-0.085999,0.966187,-6.445007,-15.484467,8.553467,1,1,4,1,1,90.000000
2021-11-26 23:21:51.253,0.9970286671587462,2.129153033959885,1.401293613803782,1.734713982121736,0.5290006079024704,0.9732180127312136,1.007783839604485,0.5220751541649303,0.7769036550607406,0.6733192398508617,1.30248953520351,1.040906934099845,0.7952795463017711,0.1164362751526039,0.6844441502573885,0.9861688696864537,0.8434446970644771,-0.05753544663068004,0.2180209763899295,0.7199344201192132,802.2344322344322,740.989010989011,821.5750915750916,848.1684981684982,720.0366300366301,0.197937,0.004456,0.888428,10.534821,-3.394470,0.792542,1,1,4,1,1,90.000000
2021-11-26 23:21:52.248,0.9048466585771244,2.129153033959885,1.401293613803782,0.909730388104669,0.4527521396881824,0.9732180127312136,1.007783839604485,0.3249794531760303,0.7988868364462961,0.6733192398508617,1.30248953520351,0.8879379736485062,0.9805639220503298,0.1164362751526039,0.6844441502573885,1.230317189637963,0.7577892860944822,-0.05753544663068004,0.2180209763899295,0.9290965563054506,821.978021978022,561.2820512820513,788.9377289377289,803.040293040293,772.4175824175825,0.180603,0.107178,0.923035,18.901367,15.903168,16.291962,1,1,4,1,1,90.000000
2021-11-26 23:21:53.153,,,,,,,,,,,,,,,,,,,,,,,,,,,,,,,,,,,,,,/muse/elements/blink
2021-11-26 23:21:53.252,1.30509913321249,2.129153033959885,1.401293613803782,1.350818548262829,0.4517536899750987,0.9732180127312136,1.007783839604485,0.7828899566911708,1.05618850917014,0.6733192398508617,1.30248953520351,1.133729009325875,1.06188501217086,0.1164362751526039,0.6844441502573885,1.029114479045202,0.6802955324471893,-0.05753544663068004,0.2180209763899295,0.8125244471240646,821.978021978022,1579.89010989011,1364.725274725275,800.2197802197802,859.4505494505495,-0.537903,0.274231,1.024597,-26.423035,60.210724,171.951599,1,1,4,1,1,90.000000
2021-11-26 23:21:54.243,1.388657970752653,2.129153033959885,1.401293613803782,1.214089877292431,1.017975370821154,0.9732180127312136,1.007783839604485,0.6577233701321556,1.215629075801915,0.6733192398508617,1.30248953520351,1.114890513116465,1.227707306207094,0.1164362751526039,0.6844441502573885,0.8181161573374535,0.7553027168442724,-0.05753544663068004,0.2180209763899295,0.7984043249149608,801.025641025641,436.3736263736264,778.0586080586081,780.0732600732601,876.3736263736264,-0.255066,0.106995,0.771606,-45.653381,11.484375,-14.033966,1,1,4,1,1,90.000000
2021-11-26 23:21:55.243,1.348286823557442,2.129153033959885,1.401293613803782,1.214089877292431,1.162493786431116,0.9732180127312136,1.007783839604485,0.6577233701321556,1.234296831572298,0.6733192398508617,1.30248953520351,1.114890513116465,0.8421252158554223,0.1164362751526039,0.6844441502573885,0.8181161573374535,0.662332036752344,-0.05753544663068004,0.2180209763899295,0.7984043249149608,799.0109890109891,0,1002.893772893773,783.6996336996338,687.3992673992674,-0.183228,0.092407,0.872498,-1.241150,-10.579681,88.697357,1,1,4,2,1,90.000000
2021-11-26 23:21:56.243,1.120998089374704,2.129153033959885,1.401293613803782,1.214089877292431,0.7363117957417533,0.9732180127312136,1.007783839604485,0.6577233701321556,1.053341782652808,0.6733192398508617,1.30248953520351,1.114890513116465,0.7337278850229592,0.1164362751526039,0.6844441502573885,0.8181161573374535,0.5580209564008638,-0.05753544663068004,0.2180209763899295,0.7984043249149608,776.0439560439561,1038.351648351648,699.8901098901099,747.8388278388279,672.4908424908425,-0.430115,-0.042908,0.874451,34.490509,11.932983,-15.200348,1,1,4,1,1,90.000000
2021-11-26 23:21:56.383,,,,,,,,,,,,,,,,,,,,,,,,,,,,,,,,,,,,,,/muse/elements/blink
2021-11-26 23:21:57.254,1.25651585091454,2.129153033959885,1.401293613803782,1.214089877292431,0.7135452171040741,0.9732180127312136,1.007783839604485,0.6577233701321556,0.8252986135343714,0.6733192398508617,1.30248953520351,1.114890513116465,0.6042307184946042,0.1164362751526039,0.6844441502573885,0.8181161573374535,0.4864764334594808,-0.05753544663068004,0.2180209763899295,0.7984043249149608,814.7252747252747,225.2380952380952,751.8681318681319,774.0293040293041,689.0109890109891,-0.447266,-0.023804,0.713623,-15.402222,-21.062164,-13.615265,1,1,4,1,1,90.000000
2021-11-26 23:21:58.243,1.106938576251824,2.129153033959885,0.8976103170860122,1.475235696049732,1.017010353020299,0.9732180127312136,0.463275963706295,0.8440665636582965,1.058936521709587,0.6733192398508617,0.493761622927929,1.224133928985358,0.5804120858361839,0.1164362751526039,0.3341044980492861,0.8606192145149502,0.6024153083497206,-0.05753544663068004,0.1069073812904127,0.6541878015444927,781.6849816849817,121.2820512820513,732.1245421245421,815.934065934066,917.8754578754579,-0.334473,0.244080,0.824524,-15.484467,-6.572113,8.284302,1,1,4,1,1,85.000000
2021-11-26 23:21:59.243,1.323746776206713,2.129153033959885,0.879700660855368,1.571592257745098,0.9883277567701853,0.9732180127312136,0.5299643346411917,0.9473988953351703,0.8866316425089749,0.6733192398508617,0.6495030144098406,1.411476525194949,0.7305926961974658,0.1164362751526039,0.3443336330702722,1.003638350690512,0.5972583805399215,-0.05753544663068004,0.1437855353314288,0.6923032899523816,817.1428571428571,0,727.6923076923077,792.967032967033,703.919413919414,-0.085693,0.404053,0.898621,17.824707,-18.273315,3.730927,1,1,2,1,1,85.000000
2021-11-26 23:22:00.248,1.667590090847526,2.129153033959885,0.9253518818905112,1.560014526277296,0.7183810161006254,0.9732180127312136,0.3277116680561217,1.097130213408246,0.5921383400072279,0.6733192398508617,0.3753480247825797,1.411476525194949,0.6750506946174243,0.1164362751526039,0.5019037196611824,1.10729565845044,0.713024743679728,-0.05753544663068004,0.1169259313117735,0.6268318506757093,811.5018315018315,601.1721611721612,759.5238095238095,838.901098901099,765.1648351648352,0.152405,0.154297,0.952271,13.518066,-31.686707,24.464111,1,1,4,1,1,85.000000
2021-11-26 23:22:01.243,1.695904760795517,2.129153033959885,0.8127722597209777,1.560014526277296,0.4944139846586654,0.9732180127312136,0.254391027086581,1.097130213408246,0.4616697385421664,0.6733192398508617,0.3054402761098463,1.411476525194949,0.6690689818630265,0.1164362751526039,0.4487821530192853,1.10729565845044,0.7124834065190989,-0.05753544663068004,0.06502220011578053,0.6268318506757093,824.7985347985348,523.0036630036631,158.7545787545788,811.9047619047619,775.6410256410256,0.544800,0.229004,0.798218,1.831818,-2.370148,-17.047119,1,1,4,1,1,85.000000
2021-11-26 23:22:01.576,,,,,,,,,,,,,,,,,,,,,,,,,,,,,,,,,,,,,,/muse/elements/blink
2021-11-26 23:22:01.774,,,,,,,,,,,,,,,,,,,,,,,,,,,,,,,,,,,,,,/muse/elements/jaw_clench
2021-11-26 23:22:01.952,,,,,,,,,,,,,,,,,,,,,,,,,,,,,,,,,,,,,,/muse/elements/jaw_clench
2021-11-26 23:22:02.247,0.8640446149338459,2.129153033959885,0.8127722597209777,1.57682478253067,0.09383909286787176,0.9732180127312136,0.254391027086581,0.3319318824656161,0.4888641725244646,0.6733192398508617,0.3054402761098463,0.7152379027302436,0.7994578426889487,0.1164362751526039,0.4487821530192853,1.078902825806044,0.4928328833484607,-0.05753544663068004,0.06502220011578053,0.7424748711356323,571.3553113553114,1250.29304029304,851.3919413919414,566.1172161172161,694.6520146520147,-0.133789,0.133850,0.892212,14.953613,-14.063873,5.712280,1,1,4,1,1,85.000000
2021-11-26 23:22:02.588,,,,,,,,,,,,,,,,,,,,,,,,,,,,,,,,,,,,,,/muse/elements/blink
2021-11-26 23:22:03.090,,,,,,,,,,,,,,,,,,,,,,,,,,,,,,,,,,,,,,/muse/elements/blink
2021-11-26 23:22:03.250,0.9381605720220434,2.129153033959885,0.8127722597209777,1.57682478253067,0.1302650823061933,0.9732180127312136,0.254391027086581,0.3319318824656161,0.4173694773489904,0.6733192398508617,0.3054402761098463,0.7152379027302436,0.8193920416211495,0.1164362751526039,0.4487821530192853,1.078902825806044,0.4155253398521948,-0.05753544663068004,0.06502220011578053,0.7424748711356323,821.1721611721612,808.2783882783883,599.1575091575091,842.1245421245421,851.3919413919414,-0.188416,0.284424,1.032532,7.753448,-8.912354,-7.514191,1,1,4,4,1,85.000000
2021-11-26 23:22:03.285,,,,,,,,,,,,,,,,,,,,,,,,,,,,,,,,,,,,,,/muse/elements/blink
2021-11-26 23:22:03.416,,,,,,,,,,,,,,,,,,,,,,,,,,,,,,,,,,,,,,/muse/elements/jaw_clench
2021-11-26 23:22:03.527,,,,,,,,,,,,,,,,,,,,,,,,,,,,,,,,,,,,,,/muse/elements/blink
2021-11-26 23:22:04.142,,,,,,,,,,,,,,,,,,,,,,,,,,,,,,,,,,,,,,/muse/elements/blink
2021-11-26 23:22:04.243,0.9381605720220434,2.129153033959885,0.8127722597209777,1.57682478253067,0.1302650823061933,0.9732180127312136,0.254391027086581,0.3319318824656161,0.4173694773489904,0.6733192398508617,0.3054402761098463,0.7152379027302436,0.8193920416211495,0.1164362751526039,0.4487821530192853,1.078902825806044,0.4155253398521948,-0.05753544663068004,0.06502220011578053,0.7424748711356323,835.6776556776557,1053.663003663004,844.1391941391942,782.0879120879121,848.1684981684982,-0.049255,0.317200,1.155640,45.010376,-24.224854,-39.656982,1,2,4,4,2,85.000000
2021-11-26 23:22:04.497,,,,,,,,,,,,,,,,,,,,,,,,,,,,,,,,,,,,,,/muse/elements/blink
2021-11-26 23:22:05.248,0.9381605720220434,2.129153033959885,0.8127722597209777,1.57682478253067,0.1302650823061933,0.9732180127312136,0.254391027086581,0.3319318824656161,0.4173694773489904,0.6733192398508617,0.3054402761098463,0.7152379027302436,0.8193920416211495,0.1164362751526039,0.4487821530192853,1.078902825806044,0.4155253398521948,-0.05753544663068004,0.06502220011578053,0.7424748711356323,800.2197802197802,394.8717948717949,784.5054945054945,786.1172161172161,829.2307692307693,0.314575,0.268860,1.057312,-10.101166,-26.385651,-1.166382,1,2,2,1,2,85.000000
2021-11-26 23:22:06.256,0.9222764136771447,2.129153033959885,1.523491846043162,1.041204859699862,0.4207545982311176,0.9732180127312136,0.9668501595952365,0.395298900912338,0.6828119795884872,0.6733192398508617,0.408278092390288,0.6481327344090001,0.5382310598721531,0.1164362751526039,0.5365310611209126,0.5151743786442785,0.7568221940947584,-0.05753544663068004,0.02501602184335011,0.4603506518492682,793.3699633699634,814.7252747252747,819.1575091575091,772.8205128205128,734.1391941391942,0.322571,0.168335,0.952148,5.278625,3.671112,-7.888031,1,1,2,1,1,85.000000
2021-11-26 23:22:07.248,1.193838410380341,2.129153033959885,1.518663271913244,1.160192329785088,0.8677812046339716,0.9732180127312136,0.8406265465572641,0.8131729643318772,0.9369999497653726,0.6733192398508617,0.5131696437017419,1.035224078365388,0.7334750811995835,0.1164362751526039,0.4723951303287328,0.7335384813066099,0.6825177662642208,-0.05753544663068004,0.1487171176377332,0.5082251216856543,791.7582417582418,339.6703296703297,773.6263736263736,772.4175824175825,911.4285714285714,0.252258,0.131409,0.963379,4.523468,-5.921631,3.476715,1,1,2,1,1,85.000000
2021-11-26 23:22:07.706,,,,,,,,,,,,,,,,,,,,,,,,,,,,,,,,,,,,,,/muse/elements/blink
2021-11-26 23:22:07.864,,,,,,,,,,,,,,,,,,,,,,,,,,,,,,,,,,,,,,/muse/elements/jaw_clench
2021-11-26 23:22:08.250,0.9917989192395722,2.129153033959885,1.559157513587974,1.116675273090527,0.8653561216227628,0.9732180127312136,0.1913458295098375,0.7177832594512461,0.9521421516376213,0.6733192398508617,0.2939221978707676,0.9065285329051167,0.9398579655221827,0.1164362751526039,0.3642379455712813,0.763425852016326,0.658696126280272,-0.05753544663068004,0.2216532420086265,0.5249437924374577,806.2637362637363,300.1831501831502,800.6227106227107,798.2051282051282,795.3846153846154,-0.040222,0.329041,0.949036,3.783264,-11.903076,5.607605,1,1,4,1,1,85.000000
2021-11-26 23:22:08.918,,,,,,,,,,,,,,,,,,,,,,,,,,,,,,,,,,,,,,/muse/elements/blink
2021-11-26 23:22:08.987,,,,,,,,,,,,,,,,,,,,,,,,,,,,,,,,,,,,,,/muse/elements/jaw_clench
2021-11-26 23:22:09.243,0.5036050356682401,2.129153033959885,1.525912009119218,1.018894984605235,0.5820233567903172,0.9732180127312136,-0.009692906619960679,0.1245840364845514,0.8094314687456322,0.6733192398508617,0.1506906129417623,0.2707166063927605,0.9559496001410323,0.1164362751526039,0.364461906390614,0.7315548613707584,0.7807767440927639,-0.05753544663068004,0.2164904625395147,0.5165810690169771,828.8278388278388,606.007326007326,660.4029304029305,946.4835164835165,827.2161172161173,0.026794,0.290527,0.992554,-1.487885,13.622742,-7.977753,1,1,4,1,1,85.000000
2021-11-26 23:22:09.879,,,,,,,,,,,,,,,,,,,,,,,,,,,,,,,,,,,,,,/muse/elements/jaw_clench
2021-11-26 23:22:10.119,,,,,,,,,,,,,,,,,,,,,,,,,,,,,,,,,,,,,,/muse/elements/blink
2021-11-26 23:22:10.243,0.5036050356682401,2.129153033959885,1.525912009119218,1.018894984605235,0.5820233567903172,0.9732180127312136,-0.009692906619960679,0.1245840364845514,0.8094314687456322,0.6733192398508617,0.1506906129417623,0.2707166063927605,0.9559496001410323,0.1164362751526039,0.364461906390614,0.7315548613707584,0.7807767440927639,-0.05753544663068004,0.2164904625395147,0.5165810690169771,803.4432234432235,453.6996336996337,655.5677655677656,831.2454212454213,807.0695970695971,0.174622,0.252625,0.967957,-0.762634,-11.947937,2.489777,1,1,4,2,1,85.000000
2021-11-26 23:22:10.730,,,,,,,,,,,,,,,,,,,,,,,,,,,,,,,,,,,,,,/muse/elements/blink
2021-11-26 23:22:11.104,,,,,,,,,,,,,,,,,,,,,,,,,,,,,,,,,,,,,,/muse/elements/jaw_clench
2021-11-26 23:22:11.249,0.5036050356682401,2.129153033959885,1.525912009119218,1.018894984605235,0.5820233567903172,0.9732180127312136,-0.009692906619960679,0.1245840364845514,0.8094314687456322,0.6733192398508617,0.1506906129417623,0.2707166063927605,0.9559496001410323,0.1164362751526039,0.364461906390614,0.7315548613707584,0.7807767440927639,-0.05753544663068004,0.2164904625395147,0.5165810690169771,823.1868131868132,602.3809523809524,563.2967032967033,796.996336996337,691.8315018315019,0.100098,0.239014,0.957825,4.396362,-9.981537,-2.332764,1,2,2,1,2,85.000000
2021-11-26 23:22:11.432,,,,,,,,,,,,,,,,,,,,,,,,,,,,,,,,,,,,,,/muse/elements/blink
2021-11-26 23:22:11.609,,,,,,,,,,,,,,,,,,,,,,,,,,,,,,,,,,,,,,/muse/elements/jaw_clench
2021-11-26 23:22:12.041,,,,,,,,,,,,,,,,,,,,,,,,,,,,,,,,,,,,,,/muse/elements/blink
2021-11-26 23:22:12.250,0.5036050356682401,2.129153033959885,1.525912009119218,1.018894984605235,0.5820233567903172,0.9732180127312136,-0.009692906619960679,0.1245840364845514,0.8094314687456322,0.6733192398508617,0.1506906129417623,0.2707166063927605,0.9559496001410323,0.1164362751526039,0.364461906390614,0.7315548613707584,0.7807767440927639,-0.05753544663068004,0.2164904625395147,0.5165810690169771,801.4285714285714,120.0732600732601,779.2673992673992,754.6886446886447,724.0659340659341,-0.041504,0.259888,0.994324,-7.559052,-46.214142,7.170258,1,2,4,1,2,85.000000
2021-11-26 23:22:13.024,,,,,,,,,,,,,,,,,,,,,,,,,,,,,,,,,,,,,,/muse/elements/jaw_clench
2021-11-26 23:22:13.243,0.5036050356682401,2.129153033959885,1.525912009119218,1.018894984605235,0.5820233567903172,0.9732180127312136,-0.009692906619960679,0.1245840364845514,0.8094314687456322,0.6733192398508617,0.1506906129417623,0.2707166063927605,0.9559496001410323,0.1164362751526039,0.364461906390614,0.7315548613707584,0.7807767440927639,-0.05753544663068004,0.2164904625395147,0.5165810690169771,782.4908424908425,840.1098901098901,1624.615384615385,740.5860805860806,776.4468864468864,0.008972,0.145630,0.997192,-6.243134,-5.016937,19.649048,1,2,4,1,2,85.000000
2021-11-26 23:22:13.263,,,,,,,,,,,,,,,,,,,,,,,,,,,,,,,,,,,,,,/muse/elements/jaw_clench
2021-11-26 23:22:14.243,0.5036050356682401,2.129153033959885,1.525912009119218,1.018894984605235,0.5820233567903172,0.9732180127312136,-0.009692906619960679,0.1245840364845514,0.8094314687456322,0.6733192398508617,0.1506906129417623,0.2707166063927605,0.9559496001410323,0.1164362751526039,0.364461906390614,0.7315548613707584,0.7807767440927639,-0.05753544663068004,0.2164904625395147,0.5165810690169771,778.4615384615385,677.7289377289377,683.3699633699634,780.8791208791209,676.1172161172161,0.232849,0.299133,1.100647,-5.936584,-23.267822,-41.660767,1,2,4,4,2,85.000000
2021-11-26 23:22:15.243,0.5036050356682401,2.129153033959885,1.525912009119218,1.545909674776426,0.5820233567903172,0.9732180127312136,-0.009692906619960679,1.218706260291548,0.8094314687456322,0.6733192398508617,0.1506906129417623,0.7143458191134886,0.9559496001410323,0.1164362751526039,0.364461906390614,0.6063152338051334,0.7807767440927639,-0.05753544663068004,0.2164904625395147,0.5184342036800933,814.3223443223443,850.1831501831502,1009.340659340659,815.5311355311355,759.92673992674,0.144226,-0.003723,1.003479,31.387634,15.312500,-23.978119,1,1,4,4,1,85.000000
2021-11-26 23:22:15.273,,,,,,,,,,,,,,,,,,,,,,,,,,,,,,,,,,,,,,/muse/elements/jaw_clench
2021-11-26 23:22:16.065,,,,,,,,,,,,,,,,,,,,,,,,,,,,,,,,,,,,,,/muse/elements/blink
2021-11-26 23:22:16.246,1.126167296407861,2.129153033959885,1.525912009119218,1.11605419891189,0.9899724353616352,0.9732180127312136,-0.009692906619960679,1.053230526486583,1.073455851545866,0.6733192398508617,0.1506906129417623,1.163767092267069,0.8683048497863063,0.1164362751526039,0.364461906390614,0.9580869604097018,0.5847125516481074,-0.05753544663068004,0.2164904625395147,0.6812359242182651,790.952380952381,582.2344322344322,726.8864468864469,792.967032967033,867.9120879120879,0.142456,0.192383,0.997009,2.811279,-18.946228,34.901733,1,1,4,4,1,85.000000
2021-11-26 23:22:17.243,1.519078316408652,2.129153033959885,1.525912009119218,1.507642697763586,1.224076199713209,0.9732180127312136,-0.009692906619960679,1.321967453960284,1.292796478613858,0.6733192398508617,0.1506906129417623,1.128223345521733,0.7972011838049572,0.1164362751526039,0.364461906390614,1.048666638761428,0.5105604511236205,-0.05753544663068004,0.2164904625395147,0.7019036465000478,787.3260073260074,767.985347985348,752.6739926739926,778.4615384615385,670.0732600732601,0.539917,0.038269,0.869934,19.260254,-30.707245,22.490234,1,1,4,4,1,85.000000
2021-11-26 23:22:17.914,,,,,,,,,,,,,,,,,,,,,,,,,,,,,,,,,,,,,,/muse/elements/blink
2021-11-26 23:22:18.243,1.605986071300777,2.129153033959885,1.525912009119218,1.72810599485329,1.513404180617949,0.9732180127312136,-0.009692906619960679,1.518358881362889,1.244702171434533,0.6733192398508617,0.1506906129417623,0.8001035198592884,1.135809227548852,0.1164362751526039,0.364461906390614,1.138012013759011,0.9483685881196171,-0.05753544663068004,0.2164904625395147,0.7626220254758762,747.8388278388279,942.4542124542124,854.2124542124542,767.985347985348,868.7179487179487,0.294739,-0.063599,0.912720,26.692200,-18.706970,-72.711945,1,1,4,2,1,90.000000
2021-11-26 23:22:19.243,1.605986071300777,2.129153033959885,1.525912009119218,1.72810599485329,1.513404180617949,0.9732180127312136,-0.009692906619960679,1.518358881362889,1.244702171434533,0.6733192398508617,0.1506906129417623,0.8001035198592884,1.135809227548852,0.1164362751526039,0.364461906390614,1.138012013759011,0.9483685881196171,-0.05753544663068004,0.2164904625395147,0.7626220254758762,1362.710622710623,757.5091575091575,1164.468864468864,888.0586080586081,873.956043956044,0.427612,0.523926,0.764465,-5.181427,-11.289978,20.157471,1,1,4,4,1,90.000000
2021-11-26 23:22:19.726,,,,,,,,,,,,,,,,,,,,,,,,,,,,,,,,,,,,,,/muse/elements/blink
2021-11-26 23:22:20.243,1.605986071300777,2.129153033959885,1.525912009119218,1.72810599485329,1.513404180617949,0.9732180127312136,-0.009692906619960679,1.518358881362889,1.244702171434533,0.6733192398508617,0.1506906129417623,0.8001035198592884,1.135809227548852,0.1164362751526039,0.364461906390614,1.138012013759011,0.9483685881196171,-0.05753544663068004,0.2164904625395147,0.7626220254758762,839.3040293040293,958.1684981684982,1346.190476190476,803.040293040293,828.021978021978,0.496094,0.441162,0.742493,-1.173859,-9.749756,-4.261780,1,1,4,4,1,90.000000
2021-11-26 23:22:20.862,,,,,,,,,,,,,,,,,,,,,,,,,,,,,,,,,,,,,,/muse/elements/blink
2021-11-26 23:22:21.245,1.605986071300777,2.129153033959885,1.525912009119218,1.72810599485329,1.513404180617949,0.9732180127312136,-0.009692906619960679,1.518358881362889,1.244702171434533,0.6733192398508617,0.1506906129417623,0.8001035198592884,1.135809227548852,0.1164362751526039,0.364461906390614,1.138012013759011,0.9483685881196171,-0.05753544663068004,0.2164904625395147,0.7626220254758762,838.0952380952381,589.8901098901099,1219.67032967033,801.4285714285714,869.5238095238095,0.531799,0.419189,0.795715,1.069183,-10.467529,-19.619141,1,2,2,2,2,90.000000
2021-11-26 23:22:21.780,,,,,,,,,,,,,,,,,,,,,,,,,,,,,,,,,,,,,,/muse/elements/blink
2021-11-26 23:22:22.243,1.605986071300777,2.129153033959885,1.525912009119218,1.919417787349163,1.513404180617949,0.9732180127312136,-0.009692906619960679,1.324488234524421,1.244702171434533,0.6733192398508617,0.1506906129417623,0.6152693940298992,1.135809227548852,0.1164362751526039,0.364461906390614,0.7883238579798106,0.9483685881196171,-0.05753544663068004,0.2164904625395147,0.5264742593365525,806.6666666666667,509.7069597069597,1020.21978021978,796.996336996337,858.6446886446887,0.271851,0.276611,0.840637,-15.619049,9.996490,-31.305389,1,1,2,2,1,90.000000
2021-11-26 23:22:22.503,,,,,,,,,,,,,,,,,,,,,,,,,,,,,,,,,,,,,,/muse/elements/blink
2021-11-26 23:22:23.243,1.605986071300777,2.129153033959885,1.525912009119218,1.946548305482261,1.513404180617949,0.9732180127312136,-0.009692906619960679,1.268545620592978,1.244702171434533,0.6733192398508617,0.1506906129417623,0.6005787005858875,1.135809227548852,0.1164362751526039,0.364461906390614,0.7804732430609471,0.9483685881196171,-0.05753544663068004,0.2164904625395147,0.4259970823901693,806.6666666666667,964.6153846153846,1136.263736263736,818.3516483516484,762.3443223443223,0.153320,0.377869,0.921509,-3.708496,-4.388885,-5.061798,1,1,2,2,1,90.000000
2021-11-26 23:22:23.704,,,,,,,,,,,,,,,,,,,,,,,,,,,,,,,,,,,,,,/muse/elements/blink
2021-11-26 23:22:24.243,1.605986071300777,2.129153033959885,1.525912009119218,1.946548305482261,1.513404180617949,0.9732180127312136,-0.009692906619960679,1.268545620592978,1.244702171434533,0.6733192398508617,0.1506906129417623,0.6005787005858875,1.135809227548852,0.1164362751526039,0.364461906390614,0.7804732430609471,0.9483685881196171,-0.05753544663068004,0.2164904625395147,0.4259970823901693,788.9377289377289,583.8461538461538,925.1282051282052,811.5018315018315,835.6776556776557,0.265320,-0.018433,0.948486,1.801910,-10.228271,23.768768,1,2,4,2,2,90.000000
2021-11-26 23:22:24.928,,,,,,,,,,,,,,,,,,,,,,,,,,,,,,,,,,,,,,/muse/elements/blink
2021-11-26 23:22:25.243,1.605986071300777,2.129153033959885,1.525912009119218,1.946548305482261,1.513404180617949,0.9732180127312136,-0.009692906619960679,1.268545620592978,1.244702171434533,0.6733192398508617,0.1506906129417623,0.6005787005858875,1.135809227548852,0.1164362751526039,0.364461906390614,0.7804732430609471,0.9483685881196171,-0.05753544663068004,0.2164904625395147,0.4259970823901693,782.4908424908425,627.3626373626374,983.5531135531136,792.967032967033,903.3699633699634,0.024597,0.468750,0.939697,-5.301056,-20.329437,-32.307281,1,2,4,2,2,90.000000
2021-11-26 23:22:26.252,1.605986071300777,2.129153033959885,1.525912009119218,1.67795719427189,1.513404180617949,0.9732180127312136,-0.009692906619960679,0.9090201133862881,1.244702171434533,0.6733192398508617,0.1506906129417623,0.6235318608935322,1.135809227548852,0.1164362751526039,0.364461906390614,0.8380619650917887,0.9483685881196171,-0.05753544663068004,0.2164904625395147,0.9006697512903427,828.8278388278388,832.4542124542124,1076.227106227106,814.3223443223443,723.6630036630037,0.669800,0.277283,0.743835,8.202057,-18.452759,14.273224,1,1,4,2,1,90.000000
2021-11-26 23:22:26.855,,,,,,,,,,,,,,,,,,,,,,,,,,,,,,,,,,,,,,/muse/elements/blink
2021-11-26 23:22:27.243,0.6010397401240317,2.129153033959885,1.525912009119218,1.608402893572372,0.3901609610648302,0.9732180127312136,-0.009692906619960679,0.8075569209058743,0.5372662163821902,0.6733192398508617,0.1506906129417623,0.6301946231633128,1.211408079908493,0.1164362751526039,0.364461906390614,0.8132420708474635,1.403967905716246,-0.05753544663068004,0.2164904625395147,0.8374858038280838,808.2783882783883,491.1721611721612,734.1391941391942,811.0989010989011,803.4432234432235,0.388062,0.108643,0.839600,36.658783,-27.051086,49.346924,1,1,4,2,1,90.000000
2021-11-26 23:22:28.243,0.8605804886834867,2.129153033959885,1.525912009119218,1.126922677571408,0.8517568806132566,0.9732180127312136,-0.009692906619960679,0.2890952787266544,1.134332840541117,0.6733192398508617,0.1506906129417623,0.3151138602521741,1.065430113985167,0.1164362751526039,0.364461906390614,0.6863409567472901,1.362810053537185,-0.05753544663068004,0.2164904625395147,0.6131973850011689,809.0842490842491,514.1391941391942,902.967032967033,804.2490842490843,939.2307692307693,0.698486,-0.021301,0.812195,8.000183,-26.475372,2.945862,1,1,4,1,1,90.000000
2021-11-26 23:22:29.243,0.6068434049034052,2.129153033959885,1.525912009119218,1.305570197860538,0.4869700430306518,0.9732180127312136,-0.009692906619960679,0.5834232130334346,1.140630901210527,0.6733192398508617,0.1506906129417623,0.488878416307319,1.254413667304555,0.1164362751526039,0.364461906390614,0.5773415616246795,1.268703373174515,-0.05753544663068004,0.2164904625395147,0.5128267017588757,786.9230769230769,673.2967032967033,925.1282051282052,787.3260073260074,769.1941391941392,0.689392,0.073364,0.721436,0.613098,-4.321594,0.732727,1,1,2,1,1,90.000000
2021-11-26 23:22:30.244,0.1632186190850253,2.129153033959885,1.525912009119218,1.488706576799112,0.2840753940878476,0.9732180127312136,-0.009692906619960679,0.5973385073828777,0.6813255229918709,0.6733192398508617,0.1506906129417623,0.6067848132013025,1.241529755544711,0.1164362751526039,0.364461906390614,0.5944617815336809,1.104422476372998,-0.05753544663068004,0.2164904625395147,0.6738328681208614,813.5164835164835,687.3992673992674,977.5091575091575,810.6959706959707,814.7252747252747,0.199219,0.144470,0.907410,12.097473,20.067749,-19.424744,1,1,4,1,1,90.000000
2021-11-26 23:22:31.242,0.2727451614536713,2.129153033959885,1.525912009119218,1.34319194231814,0.5478702131978973,0.9732180127312136,-0.009692906619960679,0.6018806556231817,0.8841089330041556,0.6733192398508617,0.1506906129417623,0.8901229369158438,0.8241454859634184,0.1164362751526039,0.364461906390614,0.7211469367212118,0.793279785669153,-0.05753544663068004,0.2164904625395147,0.6331813084477469,800.2197802197802,479.8901098901099,713.5897435897436,804.2490842490843,867.9120879120879,0.424988,0.201294,0.920654,6.273041,-8.433838,-0.717773,1,1,2,1,1,90.000000
2021-11-26 23:22:32.243,0.4126143979339783,2.129153033959885,1.525912009119218,1.11403483884109,-0.07610306277573711,0.9732180127312136,-0.009692906619960679,0.3064969155776838,0.4823845978371281,0.6733192398508617,0.1506906129417623,0.876602850143454,0.4990098351757774,0.1164362751526039,0.364461906390614,0.6878399257063882,0.3280501584612831,-0.05753544663068004,0.2164904625395147,0.5104519818452838,824.3956043956044,1359.084249084249,0,838.901098901099,753.8827838827839,0.221375,0.207275,0.952148,4.635620,17.809753,-21.697693,1,1,2,1,1,90.000000
2021-11-26 23:22:32.947,,,,,,,,,,,,,,,,,,,,,,,,,,,,,,,,,,,,,,/muse/elements/blink
2021-11-26 23:22:33.243,0.4841740356314103,2.129153033959885,1.525912009119218,0.9596830493822142,-0.0837916365050171,0.9732180127312136,-0.009692906619960679,0.1689680664631418,0.5188554902736362,0.6733192398508617,0.1506906129417623,0.7250496957297308,0.7008629184726498,0.1164362751526039,0.364461906390614,0.827066606485666,0.5258340634353874,-0.05753544663068004,0.2164904625395147,0.540629352142648,726.8864468864469,1024.652014652015,927.5457875457876,738.1684981684982,823.1868131868132,0.192383,0.259644,0.980652,-9.286194,-18.213501,5.473022,1,1,4,4,1,90.000000
2021-11-26 23:22:33.364,,,,,,,,,,,,,,,,,,,,,,,,,,,,,,,,,,,,,,/muse/elements/jaw_clench
2021-11-26 23:22:34.243,0.6423365406231674,2.129153033959885,1.525912009119218,0.6781873816703045,0.07462932534082568,0.9732180127312136,-0.009692906619960679,0.3380110611985483,0.5024273635766235,0.6733192398508617,0.1506906129417623,0.6501213470169072,0.827730259966362,0.1164362751526039,0.364461906390614,0.9203026551001503,0.6456346697583676,-0.05753544663068004,0.2164904625395147,0.6159024612885665,805.0549450549451,272.7838827838828,820.7692307692308,794.981684981685,946.4835164835165,0.214355,0.246399,0.952393,1.375732,-4.411316,3.536530,1,1,4,1,1,90.000000
2021-11-26 23:22:35.249,1.924010722819725,2.129153033959885,1.525912009119218,1.318155969047859,0.2439601214547462,0.9732180127312136,-0.009692906619960679,0.4917807398109258,0.5950629753405322,0.6733192398508617,0.1506906129417623,0.7181474467255891,0.6695770022422748,0.1164362751526039,0.364461906390614,0.7253869674513673,0.5896108872751992,-0.05753544663068004,0.2164904625395147,0.7450466106426487,819.5604395604396,779.2673992673992,880.8058608058608,836.8864468864469,831.6483516483516,0.170776,0.194641,0.960693,0.672913,-2.826233,-9.503021,1,1,2,1,1,90.000000
2021-11-26 23:22:36.243,0.7552082553534236,2.129153033959885,1.574849230955857,0.8862910696467172,0.2597093555544708,0.9732180127312136,0.6976485367543986,0.4394045554989965,0.6422515626297712,0.6733192398508617,0.6499516414721066,0.7644941811639685,0.6428038028395509,0.1164362751526039,1.070704771168906,0.7004320945897486,0.603619763415868,-0.05753544663068004,0.7612706421136968,0.5665219055756769,812.3076923076924,541.5384615384615,871.1355311355312,794.5787545787546,763.956043956044,0.213257,0.169678,0.982910,14.976044,-7.416992,-11.604004,1,1,2,1,1,90.000000
2021-11-26 23:22:37.114,,,,,,,,,,,,,,,,,,,,,,,,,,,,,,,,,,,,,,/muse/elements/jaw_clench
2021-11-26 23:22:37.243,0.3491923048348974,2.129153033959885,1.573316873352225,0.6270115862640121,0.179358962244279,0.9732180127312136,0.6885108918966167,0.3287578020576506,0.5886892408556836,0.6733192398508617,0.8329836845847534,0.424548924828527,0.5353665053989431,0.1164362751526039,1.071307519177057,0.575956049643462,0.5573555860282294,-0.05753544663068004,0.7301848343413132,0.6894932324782944,798.6080586080586,773.2234432234433,855.8241758241759,809.0842490842491,834.4688644688645,0.145386,0.102173,0.979736,-5.039368,0.164490,-21.473389,1,1,4,1,1,90.000000
2021-11-26 23:22:37.622,,,,,,,,,,,,,,,,,,,,,,,,,,,,,,,,,,,,,,/muse/elements/jaw_clench
2021-11-26 23:22:37.997,,,,,,,,,,,,,,,,,,,,,,,,,,,,,,,,,,,,,,/muse/elements/jaw_clench
2021-11-26 23:22:38.248,0.7727555963078384,2.129153033959885,1.360760495923043,0.8464351875754874,0.4794640217795843,0.9732180127312136,0.5003746578473254,0.4074962990395245,0.498373489420546,0.6733192398508617,0.8015706748053869,0.4520514762913437,0.6015848258497899,0.1164362751526039,1.061547716489518,0.5946774204465181,0.5641171228917929,-0.05753544663068004,0.5144974537422818,0.7039335703453449,804.2490842490843,617.6923076923077,833.6630036630037,783.2967032967033,784.9084249084249,0.178406,0.110901,0.951050,-1.906586,-10.198364,-4.231873,1,1,4,1,1,90.000000
2021-11-26 23:22:38.458,,,,,,,,,,,,,,,,,,,,,,,,,,,,,,,,,,,,,,/muse/elements/jaw_clench
2021-11-26 23:22:39.122,,,,,,,,,,,,,,,,,,,,,,,,,,,,,,,,,,,,,,/muse/elements/jaw_clench
2021-11-26 23:22:39.245,1.613111713533435,2.129153033959885,1.662219257402528,1.607206751075664,0.6846021634619927,0.9732180127312136,0.4384495726234419,0.6730672815610791,0.5429286744689256,0.6733192398508617,0.6965110224357359,0.5370431024068498,0.7127957395622503,0.1164362751526039,0.9495315276576635,0.6962705621230909,0.6646503140104587,-0.05753544663068004,0.4919390625996197,0.7938326338367948,751.0622710622711,150.6959706959707,873.1501831501831,726.4835164835165,978.7179487179487,0.028015,0.167236,0.995605,5.525360,23.050995,-4.972076,1,1,4,1,1,85.000000
2021-11-26 23:22:39.453,,,,,,,,,,,,,,,,,,,,,,,,,,,,,,,,,,,,,,/muse/elements/blink
2021-11-26 23:22:40.069,,,,,,,,,,,,,,,,,,,,,,,,,,,,,,,,,,,,,,/muse/elements/blink
2021-11-26 23:22:40.069,,,,,,,,,,,,,,,,,,,,,,,,,,,,,,,,,,,,,,/muse/elements/jaw_clench
2021-11-26 23:22:40.243,1.8642754039224,2.129153033959885,1.735513849067472,1.828929662631213,0.8232515524681895,0.9732180127312136,0.8837620984101173,0.6532369408436961,0.47761920352653,0.6733192398508617,0.5964942998248538,0.5351267633979945,0.7798765058371612,0.1164362751526039,1.038582365853751,0.8162657094191937,0.7044479443091012,-0.05753544663068004,0.5075899797659942,0.8361817967178047,824.3956043956044,990,846.959706959707,837.2893772893773,862.6739926739926,-0.197876,0.156738,0.937561,-9.024506,-19.641571,6.400146,1,1,4,1,1,85.000000
2021-11-26 23:22:40.769,,,,,,,,,,,,,,,,,,,,,,,,,,,,,,,,,,,,,,/muse/elements/blink
2021-11-26 23:22:40.987,,,,,,,,,,,,,,,,,,,,,,,,,,,,,,,,,,,,,,/muse/elements/jaw_clench
2021-11-26 23:22:41.242,1.8642754039224,2.129153033959885,1.735513849067472,1.828929662631213,0.8232515524681895,0.9732180127312136,0.8837620984101173,0.6532369408436961,0.47761920352653,0.6733192398508617,0.5964942998248538,0.5351267633979945,0.7798765058371612,0.1164362751526039,1.038582365853751,0.8162657094191937,0.7044479443091012,-0.05753544663068004,0.5075899797659942,0.8361817967178047,892.4908424908425,669.6703296703297,1089.52380952381,911.4285714285714,907.8021978021978,-0.161499,0.113953,1.014221,4.545898,-5.383301,7.559052,1,1,4,1,1,85.000000
2021-11-26 23:22:41.294,,,,,,,,,,,,,,,,,,,,,,,,,,,,,,,,,,,,,,/muse/elements/blink
2021-11-26 23:22:41.470,,,,,,,,,,,,,,,,,,,,,,,,,,,,,,,,,,,,,,/muse/elements/jaw_clench
2021-11-26 23:22:42.242,1.8642754039224,2.129153033959885,1.735513849067472,1.828929662631213,0.8232515524681895,0.9732180127312136,0.8837620984101173,0.6532369408436961,0.47761920352653,0.6733192398508617,0.5964942998248538,0.5351267633979945,0.7798765058371612,0.1164362751526039,1.038582365853751,0.8162657094191937,0.7044479443091012,-0.05753544663068004,0.5075899797659942,0.8361817967178047,779.2673992673992,430.3296703296704,836.0805860805862,778.8644688644689,821.1721611721612,0.040283,0.118164,0.996521,27.978210,12.770386,-7.454376,1,2,4,1,2,85.000000
2021-11-26 23:22:42.423,,,,,,,,,,,,,,,,,,,,,,,,,,,,,,,,,,,,,,/muse/elements/blink
2021-11-26 23:22:42.881,,,,,,,,,,,,,,,,,,,,,,,,,,,,,,,,,,,,,,/muse/elements/jaw_clench
2021-11-26 23:22:43.118,,,,,,,,,,,,,,,,,,,,,,,,,,,,,,,,,,,,,,/muse/elements/jaw_clench
2021-11-26 23:22:43.243,1.8642754039224,2.129153033959885,1.735513849067472,1.828929662631213,0.8232515524681895,0.9732180127312136,0.8837620984101173,0.6532369408436961,0.47761920352653,0.6733192398508617,0.5964942998248538,0.5351267633979945,0.7798765058371612,0.1164362751526039,1.038582365853751,0.8162657094191937,0.7044479443091012,-0.05753544663068004,0.5075899797659942,0.8361817967178047,821.978021978022,500.4395604395605,748.6446886446887,844.5421245421246,710.3663003663004,0.008911,0.396057,0.940369,3.790741,-3.357086,5.286102,1,2,4,1,2,85.000000
2021-11-26 23:22:43.620,,,,,,,,,,,,,,,,,,,,,,,,,,,,,,,,,,,,,,/muse/elements/jaw_clench
2021-11-26 23:22:43.908,,,,,,,,,,,,,,,,,,,,,,,,,,,,,,,,,,,,,,/muse/elements/jaw_clench
2021-11-26 23:22:44.107,,,,,,,,,,,,,,,,,,,,,,,,,,,,,,,,,,,,,,/muse/elements/jaw_clench
2021-11-26 23:22:44.243,1.156159049021698,2.129153033959885,1.548533427814366,1.322306779070966,0.5920443479252754,0.9732180127312136,1.089682332269769,0.5907699893133114,0.5040898165332548,0.6733192398508617,0.9473593140673578,0.7008057379540971,0.5321801957328939,0.1164362751526039,1.181228989164606,0.8234939533859824,0.586618234178747,-0.05753544663068004,0.5977725649549113,0.7660814409780812,803.4432234432235,737.3626373626374,803.8461538461539,816.7399267399268,766.3736263736264,0.145203,0.371765,0.930725,8.501129,-2.041168,10.968475,1,1,4,1,1,85.000000
2021-11-26 23:22:45.242,0.7929293723174961,2.129153033959885,1.762191039369865,1.005863028992302,0.354634480913616,0.9732180127312136,1.06164226754717,0.2272012255110013,0.5397725953748809,0.6733192398508617,1.04675673037745,0.6311540084468658,0.5668870744153878,0.1164362751526039,1.128738166206862,0.7932599722754876,0.4966737846098842,-0.05753544663068004,0.6450914507100515,0.4640389237322721,810.2930402930403,377.948717948718,774.8351648351648,791.7582417582418,834.4688644688645,0.274292,0.376038,0.909180,4.306641,-26.482849,-46.490784,1,1,4,1,1,85.000000
2021-11-26 23:22:45.473,,,,,,,,,,,,,,,,,,,,,,,,,,,,,,,,,,,,,,/muse/elements/jaw_clench
2021-11-26 23:22:45.652,,,,,,,,,,,,,,,,,,,,,,,,,,,,,,,,,,,,,,/muse/elements/jaw_clench
2021-11-26 23:22:46.242,0.663630008613011,2.129153033959885,1.688121958558907,1.148593282246799,0.5844355813953142,0.9732180127312136,0.8521801277528874,0.380910483925156,0.8856649859605344,0.6733192398508617,0.7209031646458892,0.4004414249115699,0.6568651363971924,0.1164362751526039,1.094239218049962,0.7360345519731559,0.4802198183062814,-0.05753544663068004,0.7172600029989399,0.2528517087818321,811.0989010989011,691.025641025641,785.3113553113553,787.3260073260074,677.3260073260074,0.134583,0.193665,0.947266,4.082336,-10.542297,-14.460144,1,1,4,1,1,85.000000
2021-11-26 23:22:47.242,0.879399665985416,2.129153033959885,1.431946980352027,1.221248651833586,0.5853679877382011,0.9732180127312136,0.6835122370718827,0.6893616448055045,0.8765154147391211,0.6733192398508617,0.6516015552008474,0.6010793464944568,0.8230236864567078,0.1164362751526039,1.019860348883464,0.7278671256655893,0.5881086601691409,-0.05753544663068004,0.732086385168421,0.475369008941424,787.3260073260074,528.2417582417582,842.1245421245421,797.3992673992674,753.8827838827839,0.433105,0.321228,0.855835,2.153320,-12.067566,8.867493,1,1,4,1,1,85.000000
2021-11-26 23:22:47.473,,,,,,,,,,,,,,,,,,,,,,,,,,,,,,,,,,,,,,/muse/elements/jaw_clench
2021-11-26 23:22:48.242,0.79203889115211,2.129153033959885,1.020601199603903,1.061563805665377,0.5595897141564471,0.9732180127312136,0.6973538393482019,0.5704087067929685,0.8100459794461704,0.6733192398508617,0.8385351286213755,0.5939442729382017,1.207514875374639,0.1164362751526039,1.068816051529484,0.7808750242271102,0.8767790304979624,-0.05753544663068004,0.3679317402726797,0.6335651389371374,822.7838827838829,657.5824175824176,827.6190476190476,832.0512820512821,864.6886446886447,0.438904,0.255676,0.999329,-0.762634,7.162781,-14.938660,1,1,4,1,1,85.000000
2021-11-26 23:22:49.111,,,,,,,,,,,,,,,,,,,,,,,,,,,,,,,,,,,,,,/muse/elements/jaw_clench
2021-11-26 23:22:49.243,1.002385228880463,2.129153033959885,0.7433519212096646,0.9604111004452112,0.4247742225788768,0.9732180127312136,0.3189049219552082,0.2867960972538818,0.5640024079107284,0.6733192398508617,0.783567241804057,0.6837256930839792,1.296441232440102,0.1164362751526039,0.990105653877532,0.7503073018867442,1.244442027104489,-0.05753544663068004,0.3491934493107223,0.7523962047586614,788.1318681318681,666.4468864468864,823.992673992674,804.2490842490843,866.7032967032967,-0.135071,0.270508,0.942078,-5.151520,-7.469330,-17.712555,1,1,4,1,1,90.000000
2021-11-26 23:22:49.309,,,,,,,,,,,,,,,,,,,,,,,,,,,,,,,,,,,,,,/muse/elements/jaw_clench
2021-11-26 23:22:50.103,,,,,,,,,,,,,,,,,,,,,,,,,,,,,,,,,,,,,,/muse/elements/jaw_clench
2021-11-26 23:22:50.245,1.351105707427001,2.129153033959885,1.47820800249007,1.237731045262826,0.7709179220862785,0.9732180127312136,0.4804465996616902,0.6981345184811775,0.7947689882973372,0.6733192398508617,0.648333414525725,0.7667576636317915,1.354890628639931,0.1164362751526039,0.9048215433372769,0.819426134207647,1.338562061546552,-0.05753544663068004,0.450769788030927,0.6777341871010891,817.1428571428571,626.1538461538462,821.1721611721612,817.1428571428571,698.6813186813187,-0.076782,0.299133,0.977661,5.121613,-6.183319,-12.658234,1,1,4,1,1,90.000000
2021-11-26 23:22:51.242,1.036090324434546,2.129153033959885,1.260650862967595,0.9810655523186902,0.4720517006401739,0.9732180127312136,0.1534530768976145,0.567691329932108,0.8816275363616388,0.6733192398508617,0.6602768731062389,0.7254635903066354,1.283915717474108,0.1164362751526039,0.9025133396098075,0.8677666240164487,1.25214878400175,-0.05753544663068004,0.4887600091262277,0.649419094571801,788.5347985347986,817.948717948718,821.978021978022,809.4871794871796,808.2783882783883,-0.113708,0.303650,0.974121,5.547791,-9.450684,-6.833801,1,1,4,1,1,90.000000
2021-11-26 23:22:51.753,,,,,,,,,,,,,,,,,,,,,,,,,,,,,,,,,,,,,,/muse/elements/jaw_clench
2021-11-26 23:22:52.242,0.772261938907281,2.129153033959885,0.9275868884260327,1.357555963161991,0.3139197687902753,0.9732180127312136,0.3416655101884359,0.6882450484432782,1.015516601083518,0.6733192398508617,0.4446202481321275,0.9495685470275967,1.212543838678243,0.1164362751526039,0.9555826306429345,0.8552906299968661,1.275520906915932,-0.05753544663068004,0.5579157551966363,0.612223861144082,802.6373626373627,104.7619047619048,813.1135531135532,813.1135531135532,758.7179487179487,-0.191284,0.236755,0.949097,-0.747681,-9.637604,-13.398438,1,1,4,1,1,90.000000
2021-11-26 23:22:53.249,0.9602542043304456,2.129153033959885,1.321798575191679,1.519242254614343,0.5119633748913788,0.9732180127312136,0.9399226894500864,0.9223759862216092,0.9554189806081294,0.6733192398508617,0.6219413878831289,1.182831471509773,1.275032620446538,0.1164362751526039,0.9799973980247862,1.115336002473278,1.257688346920188,-0.05753544663068004,0.3887594509496265,0.8553669152654563,822.7838827838829,1557.728937728938,828.8278388278388,807.4725274725275,768.3882783882784,-0.235168,0.229492,0.971497,3.872986,5.540314,2.616882,1,1,4,1,1,90.000000
2021-11-26 23:22:53.849,,,,,,,,,,,,,,,,,,,,,,,,,,,,,,,,,,,,,,/muse/elements/blink
2021-11-26 23:22:54.001,,,,,,,,,,,,,,,,,,,,,,,,,,,,,,,,,,,,,,/muse/elements/jaw_clench
2021-11-26 23:22:54.178,,,,,,,,,,,,,,,,,,,,,,,,,,,,,,,,,,,,,,/muse/elements/jaw_clench
2021-11-26 23:22:54.242,0.9602542043304456,2.129153033959885,1.452088753573401,0.8310504812744592,0.5119633748913788,0.9732180127312136,1.030107663319472,0.7211736896836993,0.9554189806081294,0.6733192398508617,0.7579148104931028,1.087161322935232,1.275032620446538,0.1164362751526039,0.9331430873759364,1.068813880582589,1.257688346920188,-0.05753544663068004,0.3498596484870264,0.9156293881031216,857.4358974358975,410.5860805860806,823.5897435897436,850.989010989011,715.6043956043957,-0.080933,0.183716,1.029480,5.577698,-3.588867,-7.798309,1,1,4,1,1,90.000000
2021-11-26 23:22:55.242,0.9602542043304456,2.129153033959885,1.353495869130093,0.8310504812744592,0.5119633748913788,0.9732180127312136,1.082491004632308,0.7211736896836993,0.9554189806081294,0.6733192398508617,0.7529072014975091,1.087161322935232,1.275032620446538,0.1164362751526039,0.9381799730217839,1.068813880582589,1.257688346920188,-0.05753544663068004,0.4728469227487632,0.9156293881031216,808.6813186813187,0,935.2014652014652,819.96336996337,761.941391941392,-0.315796,0.203735,0.908691,-0.523376,-11.798401,22.826691,1,1,4,1,1,90.000000
2021-11-26 23:22:55.580,,,,,,,,,,,,,,,,,,,,,,,,,,,,,,,,,,,,,,/muse/elements/blink
2021-11-26 23:22:56.242,0.9602542043304456,2.129153033959885,1.182963039833235,0.8310504812744592,0.5119633748913788,0.9732180127312136,0.9180075751679672,0.7211736896836993,0.9554189806081294,0.6733192398508617,0.4385474441225242,1.087161322935232,1.275032620446538,0.1164362751526039,0.9318538377395859,1.068813880582589,1.257688346920188,-0.05753544663068004,0.6404479743175703,0.9156293881031216,789.7435897435897,749.4505494505495,726.4835164835165,824.3956043956044,740.1831501831502,0.503174,0.072998,0.924500,4.770203,-12.777863,-14.519958,1,2,4,1,2,90.000000
2021-11-26 23:22:56.624,,,,,,,,,,,,,,,,,,,,,,,,,,,,,,,,,,,,,,/muse/elements/jaw_clench
2021-11-26 23:22:56.713,,,,,,,,,,,,,,,,,,,,,,,,,,,,,,,,,,,,,,/muse/elements/blink
2021-11-26 23:22:57.249,0.9602542043304456,2.129153033959885,1.182963039833235,0.8310504812744592,0.5119633748913788,0.9732180127312136,0.9180075751679672,0.7211736896836993,0.9554189806081294,0.6733192398508617,0.4385474441225242,1.087161322935232,1.275032620446538,0.1164362751526039,0.9318538377395859,1.068813880582589,1.257688346920188,-0.05753544663068004,0.6404479743175703,0.9156293881031216,800.6227106227107,603.992673992674,730.5128205128206,793.3699633699634,780.0732600732601,0.510193,0.280518,0.834534,10.983429,-6.063690,-0.508423,1,2,4,1,2,90.000000
2021-11-26 23:22:57.931,,,,,,,,,,,,,,,,,,,,,,,,,,,,,,,,,,,,,,/muse/elements/blink
2021-11-26 23:22:58.242,0.9602542043304456,2.129153033959885,1.182963039833235,0.8310504812744592,0.5119633748913788,0.9732180127312136,0.9180075751679672,0.7211736896836993,0.9554189806081294,0.6733192398508617,0.4385474441225242,1.087161322935232,1.275032620446538,0.1164362751526039,0.9318538377395859,1.068813880582589,1.257688346920188,-0.05753544663068004,0.6404479743175703,0.9156293881031216,815.5311355311355,651.1355311355312,695.8608058608058,812.3076923076924,798.2051282051282,0.516296,0.256470,0.851685,5.719757,-4.515991,1.480408,1,2,4,1,2,90.000000
2021-11-26 23:22:58.739,,,,,,,,,,,,,,,,,,,,,,,,,,,,,,,,,,,,,,/muse/elements/blink
2021-11-26 23:22:59.244,0.9602542043304456,2.129153033959885,1.182963039833235,0.8310504812744592,0.5119633748913788,0.9732180127312136,0.9180075751679672,0.7211736896836993,0.9554189806081294,0.6733192398508617,0.4385474441225242,1.087161322935232,1.275032620446538,0.1164362751526039,0.9318538377395859,1.068813880582589,1.257688346920188,-0.05753544663068004,0.6404479743175703,0.9156293881031216,805.4578754578755,949.3040293040293,776.4468864468864,813.1135531135532,778.0586080586081,0.531677,0.140198,0.862854,4.284210,-6.579590,-1.749573,1,2,4,1,2,85.000000
2021-11-26 23:23:00.243,0.9808589460349521,2.129153033959885,1.182963039833235,0.8957908825361874,0.1473867491047207,0.9732180127312136,0.9180075751679672,0.8036837301634014,0.1409934261563117,0.6733192398508617,0.4385474441225242,0.8212792732578089,0.7048021828414943,0.1164362751526039,0.9318538377395859,1.289760077019251,0.2953781242331365,-0.05753544663068004,0.6404479743175703,0.6514114438789943,817.5457875457876,713.992673992674,750.6593406593407,814.7252747252747,815.934065934066,0.523376,0.192261,0.865967,6.729126,11.028290,-15.544281,1,1,4,1,1,85.000000
2021-11-26 23:23:01.242,0.9119013129105055,2.129153033959885,1.182963039833235,0.914503165610003,0.5629153479696155,0.9732180127312136,0.9180075751679672,0.7119990871034838,0.764670166471596,0.6733192398508617,0.4385474441225242,1.01064875765458,0.6019009592062435,0.1164362751526039,0.9318538377395859,1.244600741310747,0.2861021864710382,-0.05753544663068004,0.6404479743175703,0.6541961561707226,792.967032967033,1494.065934065934,1151.172161172161,855.8241758241759,957.7655677655678,0.200012,-0.111328,1.035217,-0.089722,-23.828583,-12.045135,1,1,4,1,1,85.000000
2021-11-26 23:23:02.242,1.265747393141878,2.129153033959885,1.182963039833235,0.9788880497552798,0.9516595996329372,0.9732180127312136,0.9180075751679672,0.7448749382199462,0.8084906022457832,0.6733192398508617,0.4385474441225242,0.8507353062290134,0.9030991171182661,0.1164362751526039,0.9318538377395859,1.207345366880211,0.6808177563384867,-0.05753544663068004,0.6404479743175703,0.7181429168524629,830.4395604395604,518.5714285714286,695.4578754578755,833.2600732600733,716.4102564102565,0.616882,0.221985,0.879883,0.568237,-2.564545,-67.769775,1,1,4,4,1,85.000000
2021-11-26 23:23:02.643,,,,,,,,,,,,,,,,,,,,,,,,,,,,,,,,,,,,,,/muse/elements/blink
2021-11-26 23:23:02.995,,,,,,,,,,,,,,,,,,,,,,,,,,,,,,,,,,,,,,/muse/elements/blink
2021-11-26 23:23:03.242,1.516114700107104,2.129153033959885,1.182963039833235,1.033555917054505,1.075464645126693,0.9732180127312136,0.9180075751679672,0.8077253544675363,0.5906120023345149,0.6733192398508617,0.4385474441225242,0.8217284144895713,1.121934511908473,0.1164362751526039,0.9318538377395859,1.215218100092033,0.9487837439869748,-0.05753544663068004,0.6404479743175703,0.7544557983859991,829.2307692307693,881.2087912087912,1028.681318681319,824.3956043956044,868.3150183150184,-0.414307,-0.181335,0.921814,-4.052429,-10.676880,26.116486,1,1,4,2,1,85.000000
2021-11-26 23:23:03.496,,,,,,,,,,,,,,,,,,,,,,,,,,,,,,,,,,,,,,/muse/elements/blink
2021-11-26 23:23:03.930,,,,,,,,,,,,,,,,,,,,,,,,,,,,,,,,,,,,,,/muse/elements/blink
2021-11-26 23:23:04.242,1.516114700107104,2.129153033959885,1.182963039833235,1.033555917054505,1.075464645126693,0.9732180127312136,0.9180075751679672,0.8077253544675363,0.5906120023345149,0.6733192398508617,0.4385474441225242,0.8217284144895713,1.121934511908473,0.1164362751526039,0.9318538377395859,1.215218100092033,0.9487837439869748,-0.05753544663068004,0.6404479743175703,0.7544557983859991,826.4102564102565,674.9084249084249,864.6886446886447,859.4505494505495,737.7655677655678,0.368042,0.129578,0.878662,17.495728,8.987122,-15.319977,1,1,4,2,1,85.000000
2021-11-26 23:23:05.249,0.999732953547807,2.129153033959885,1.182963039833235,1.033555917054505,0.9535403021397661,0.9732180127312136,0.9180075751679672,0.8077253544675363,0.8929227237494303,0.6733192398508617,0.4385474441225242,0.8217284144895713,1.096466359742994,0.1164362751526039,0.9318538377395859,1.215218100092033,1.417761919919829,-0.05753544663068004,0.6404479743175703,0.7544557983859991,801.025641025641,1613.736263736264,897.7289377289378,806.2637362637363,786.1172161172161,0.508545,0.199402,0.872498,-1.988831,0.366364,-21.936951,1,1,4,1,1,85.000000
2021-11-26 23:23:06.242,1.225836787806131,2.129153033959885,1.182963039833235,1.5543077993729,1.031963882459269,0.9732180127312136,0.9180075751679672,1.288006094058824,0.9284342742103106,0.6733192398508617,0.4385474441225242,0.8431507557233341,0.9371969108522347,0.1164362751526039,0.9318538377395859,1.012357619590234,1.23588238458777,-0.05753544663068004,0.6404479743175703,1.152360694685096,810.2930402930403,388.4249084249084,828.021978021978,800.6227106227107,927.1428571428572,0.463562,0.201294,0.899231,-10.960999,-2.332764,9.944153,1,1,4,1,1,85.000000
2021-11-26 23:23:07.242,0.9809343497812569,2.129153033959885,1.182963039833235,1.326376231933986,0.786763967163012,0.9732180127312136,0.9180075751679672,1.098995013928338,0.9915580390170231,0.6733192398508617,0.4385474441225242,0.818130872478579,0.9262958919966903,0.1164362751526039,0.9318538377395859,0.7335815455185929,0.7487020943222699,-0.05753544663068004,0.6404479743175703,0.8897379492940797,817.5457875457876,917.8754578754579,827.2161172161173,807.0695970695971,906.5934065934066,0.510925,0.152527,0.782349,9.832001,-7.207642,-0.628052,1,1,2,1,1,85.000000
2021-11-26 23:23:08.242,0.9968312608805848,2.129153033959885,1.182963039833235,1.037613849934633,0.8594230996855229,0.9732180127312136,0.9180075751679672,0.9309952261520157,1.047117780603196,0.6733192398508617,0.4385474441225242,0.9677647083003497,0.8623580747184104,0.1164362751526039,0.9318538377395859,0.7746600802686217,0.5817146886384721,-0.05753544663068004,0.6404479743175703,0.7646693684664954,771.6117216117216,474.2490842490843,709.9633699633699,768.7912087912088,835.2747252747253,0.748108,0.189331,0.661987,21.391144,-5.682373,45.758057,1,1,4,1,1,85.000000
2021-11-26 23:23:08.376,,,,,,,,,,,,,,,,,,,,,,,,,,,,,,,,,,,,,,/muse/elements/blink
2021-11-26 23:23:08.792,,,,,,,,,,,,,,,,,,,,,,,,,,,,,,,,,,,,,,/muse/elements/blink
2021-11-26 23:23:09.243,1.244815379854012,2.129153033959885,1.182963039833235,1.238081871982293,1.082545473208894,0.9732180127312136,0.9180075751679672,1.338886316120762,0.9825533470872501,0.6733192398508617,0.4385474441225242,0.9628657450734952,0.9079330460602558,0.1164362751526039,0.9318538377395859,0.868079068224433,0.7348082717894461,-0.05753544663068004,0.6404479743175703,0.8972179636605155,824.7985347985348,467.8021978021978,805.8608058608058,819.1575091575091,783.2967032967033,0.658691,0.148071,0.687378,4.957123,-7.177734,-40.688782,1,1,2,1,1,85.000000
2021-11-26 23:23:10.243,1.194395983709366,2.129153033959885,1.182963039833235,0.4473421389466704,0.8688614550532732,0.9732180127312136,0.9180075751679672,0.4420752577881642,0.9749768443333006,0.6733192398508617,0.4385474441225242,0.4731122974995383,1.169709211048657,0.1164362751526039,0.9318538377395859,0.7952336376616045,0.8850968268835068,-0.05753544663068004,0.6404479743175703,0.6139302366003488,816.3369963369963,1139.89010989011,871.1355311355312,798.6080586080586,859.8534798534798,0.574280,0.042419,0.820190,17.465820,25.720215,-15.469513,1,1,2,1,1,85.000000
2021-11-26 23:23:11.255,0.9905677487185884,2.129153033959885,1.182963039833235,0.7400840324844707,0.5625620810271095,0.9732180127312136,0.9180075751679672,0.3537351236712882,0.9749768443333006,0.6733192398508617,0.4385474441225242,0.7999853907907901,0.9906802199615151,0.1164362751526039,0.9318538377395859,0.6585638325329196,0.8207562714839093,-0.05753544663068004,0.6404479743175703,0.6525475772975826,844.9450549450549,924.3223443223443,857.4358974358975,795.3846153846154,704.3223443223443,0.112732,0.332458,0.957764,34.011993,19.073334,-103.935089,1,1,4,1,1,85.000000
2021-11-26 23:23:11.331,,,,,,,,,,,,,,,,,,,,,,,,,,,,,,,,,,,,,,/muse/elements/blink
2021-11-26 23:23:12.242,0.9012880177242557,2.129153033959885,1.182963039833235,0.9172978452525716,0.2615305225900685,0.9732180127312136,0.9180075751679672,0.3420434343698264,0.3564890821694674,0.6733192398508617,0.4385474441225242,0.728702984072402,0.796647267373206,0.1164362751526039,0.9318538377395859,0.6193048993161926,0.537676244323029,-0.05753544663068004,0.6404479743175703,0.6674184248694764,812.3076923076924,585.4578754578755,832.0512820512821,855.4212454212454,766.3736263736264,-0.276306,0.388062,0.900513,3.102875,-5.383301,0.336456,1,1,4,1,1,85.000000
2021-11-26 23:23:13.242,1.485860414831146,2.129153033959885,1.225501388608826,1.848408089055606,0.6688003458742975,0.9732180127312136,0.8238903126816598,0.9843046164711836,1.028366063896428,0.6733192398508617,0.6420705821552072,0.7803528747072618,1.034647009869222,0.1164362751526039,1.486141971063151,0.7435452206872033,0.9871223774251425,-0.05753544663068004,0.7646961670129301,0.7089316314322872,791.3553113553114,279.6336996336996,931.1721611721612,790.1465201465202,685.3846153846154,-0.004089,0.423157,0.886292,-2.639313,-21.151886,8.448792,1,1,4,1,1,85.000000
2021-11-26 23:23:14.250,1.339344394487157,2.129153033959885,1.138939422966779,1.80920747884178,0.8443565953155737,0.9732180127312136,0.5777910891897908,0.8514479766501732,0.8915278157234613,0.6733192398508617,0.5583045246112632,0.7161199253963108,0.7537683885056025,0.1164362751526039,1.485372175243638,0.8002183570849837,0.7666347099944267,-0.05753544663068004,0.6413841986453555,0.8376450354431443,785.3113553113553,863.0769230769231,462.1611721611721,799.8168498168499,676.5201465201466,0.181763,0.349854,0.928772,1.046753,-10.430145,-9.645081,1,1,4,1,1,85.000000
2021-11-26 23:23:15.242,1.184825825102438,2.129153033959885,1.138939422966779,1.545245919440757,0.9799246960876078,0.9732180127312136,0.5777910891897908,1.156203758544989,0.8645801353620014,0.6733192398508617,0.5583045246112632,0.9858297368083365,0.7364683235474404,0.1164362751526039,1.485372175243638,0.7031367385648003,0.3421758538532516,-0.05753544663068004,0.6413841986453555,0.6124529361666853,811.5018315018315,437.1794871794872,675.7142857142858,857.032967032967,876.3736263736264,0.190308,0.385742,0.935669,-32.225037,14.789124,63.463135,1,1,4,2,1,85.000000
2021-11-26 23:23:16.242,1.11607203150622,2.129153033959885,1.138939422966779,1.448751043802245,0.833461224795909,0.9732180127312136,0.5777910891897908,1.270137837188069,1.040821578476833,0.6733192398508617,0.5583045246112632,1.389878548819327,0.7546068882922192,0.1164362751526039,1.485372175243638,0.7834579673850893,0.5761218413435919,-0.05753544663068004,0.6413841986453555,0.6188193203487021,815.1282051282052,847.3626373626374,1027.875457875458,795.3846153846154,746.2271062271062,0.174744,0.273682,0.977966,3.686066,4.762726,2.243042,1,1,4,4,1,85.000000
2021-11-26 23:23:17.242,1.143073365970832,2.129153033959885,1.138939422966779,1.286581668475494,0.6441786528104986,0.9732180127312136,0.5777910891897908,1.150658273354757,1.058127320663036,0.6733192398508617,0.5583045246112632,1.410228475055688,0.7294334459071257,0.1164362751526039,1.485372175243638,0.9238707645619304,0.6441646493691047,-0.05753544663068004,0.6413841986453555,0.6860641848196308,806.2637362637363,680.1465201465202,0,768.7912087912088,807.8754578754579,0.167175,0.222717,0.963318,6.302948,-2.676697,-16.269531,1,1,4,4,1,85.000000
2021-11-26 23:23:18.125,,,,,,,,,,,,,,,,,,,,,,,,,,,,,,,,,,,,,,/muse/elements/blink
2021-11-26 23:23:18.242,0.6325478170532204,2.129153033959885,1.138939422966779,0.8495490423313062,0.364138277498921,0.9732180127312136,0.5777910891897908,0.5638167995250869,0.7318329124643564,0.6733192398508617,0.5583045246112632,0.701233873001088,1.072481298739934,0.1164362751526039,1.485372175243638,1.167985917090653,0.9403299319264234,-0.05753544663068004,0.6413841986453555,0.9701375414648947,821.5750915750916,565.3113553113553,1097.985347985348,823.1868131868132,794.981684981685,-0.107483,0.158081,0.953918,-1.076660,-2.960815,-39.290619,1,1,4,4,1,85.000000
2021-11-26 23:23:18.560,,,,,,,,,,,,,,,,,,,,,,,,,,,,,,,,,,,,,,/muse/elements/blink
2021-11-26 23:23:19.242,0.6420430685726916,2.129153033959885,1.138939422966779,0.8687430970624643,0.4797438287393715,0.9732180127312136,0.5777910891897908,0.6052541128638305,0.7318329124643564,0.6733192398508617,0.5583045246112632,0.701233873001088,1.164135517194916,0.1164362751526039,1.485372175243638,1.233045839409821,1.044140703986274,-0.05753544663068004,0.6413841986453555,1.021816894735354,761.1355311355312,507.6923076923077,1032.710622710623,718.021978021978,743.0036630036631,-0.247070,0.299622,0.939636,2.579498,-4.022522,-2.886047,1,1,4,2,1,85.000000
2021-11-26 23:23:19.968,,,,,,,,,,,,,,,,,,,,,,,,,,,,,,,,,,,,,,/muse/elements/blink
2021-11-26 23:23:20.242,0.6420430685726916,2.129153033959885,1.138939422966779,0.8687430970624643,0.4797438287393715,0.9732180127312136,0.5777910891897908,0.6052541128638305,0.7318329124643564,0.6733192398508617,0.5583045246112632,0.701233873001088,1.164135517194916,0.1164362751526039,1.485372175243638,1.233045839409821,1.044140703986274,-0.05753544663068004,0.6413841986453555,1.021816894735354,759.92673992674,706.7399267399268,909.8168498168499,763.956043956044,811.9047619047619,-0.342163,0.205444,0.917358,-4.246826,5.487976,3.342133,1,2,4,1,2,90.000000
2021-11-26 23:23:20.471,,,,,,,,,,,,,,,,,,,,,,,,,,,,,,,,,,,,,,/muse/elements/blink
2021-11-26 23:23:21.242,0.6420430685726916,2.129153033959885,1.138939422966779,0.8687430970624643,0.4797438287393715,0.9732180127312136,0.5777910891897908,0.6052541128638305,0.7318329124643564,0.6733192398508617,0.5583045246112632,0.701233873001088,1.164135517194916,0.1164362751526039,1.485372175243638,1.233045839409821,1.044140703986274,-0.05753544663068004,0.6413841986453555,1.021816894735354,804.2490842490843,634.2124542124542,898.1318681318681,810.6959706959707,772.8205128205128,-0.306396,0.203735,0.943604,6.833801,-4.620667,-2.968292,1,2,4,1,2,90.000000
2021-11-26 23:23:21.780,,,,,,,,,,,,,,,,,,,,,,,,,,,,,,,,,,,,,,/muse/elements/blink
2021-11-26 23:23:22.242,0.8052402544006169,2.129153033959885,1.138939422966779,1.01185546076679,0.6937999386072748,0.9732180127312136,0.5777910891897908,0.9585913164888971,0.7140027590871045,0.6733192398508617,0.5583045246112632,0.8477518692992738,0.6867544352665906,0.1164362751526039,1.485372175243638,0.4609648653701809,0.4094356111126353,-0.05753544663068004,0.6413841986453555,0.3585730634847776,759.5238095238095,640.6593406593407,793.7728937728938,768.7912087912088,757.1062271062272,0.075256,0.175415,0.983826,-7.102966,-39.395294,43.171082,1,1,4,1,1,90.000000
2021-11-26 23:23:23.242,0.8294907425431146,2.129153033959885,1.138939422966779,1.075255736064803,0.7839666360126544,0.9732180127312136,0.5777910891897908,1.11943685711273,0.7078735520401821,0.6733192398508617,0.5583045246112632,0.8477518692992738,0.6798689861549072,0.1164362751526039,1.485372175243638,0.3855593209275839,0.3635363963110871,-0.05753544663068004,0.6413841986453555,0.3407136979315023,809.8901098901099,938.021978021978,835.6776556776557,816.3369963369963,781.6849816849817,0.181641,0.145325,0.964172,8.037567,3.611298,-7.828217,1,1,4,1,1,90.000000
2021-11-26 23:23:23.839,,,,,,,,,,,,,,,,,,,,,,,,,,,,,,,,,,,,,,/muse/elements/blink
2021-11-26 23:23:24.246,0.8880302050293812,2.129153033959885,1.138939422966779,1.075255736064803,0.7367528215875644,0.9732180127312136,0.5777910891897908,1.11943685711273,0.9070677797597998,0.6733192398508617,0.5583045246112632,0.8477518692992738,0.818850151760759,0.1164362751526039,1.485372175243638,0.3855593209275839,0.3582843738676377,-0.05753544663068004,0.6413841986453555,0.3407136979315023,793.3699633699634,0,825.2014652014652,828.021978021978,1162.454212454212,-0.211731,0.399536,0.932983,15.962982,-3.648682,-28.965149,1,1,4,2,1,90.000000
2021-11-26 23:23:25.242,0.8076067038750614,2.129153033959885,1.138939422966779,1.075255736064803,0.793430086473974,0.9732180127312136,0.5777910891897908,1.11943685711273,0.6020646680849723,0.6733192398508617,0.5583045246112632,0.8477518692992738,0.6290241877170343,0.1164362751526039,1.485372175243638,0.3855593209275839,0.2984594949318304,-0.05753544663068004,0.6413841986453555,0.3407136979315023,824.3956043956044,816.3369963369963,861.8681318681319,828.021978021978,750.6593406593407,-0.066406,0.245667,1.012573,-3.536530,-27.701569,91.119843,1,1,4,1,1,90.000000
2021-11-26 23:23:26.049,,,,,,,,,,,,,,,,,,,,,,,,,,,,,,,,,,,,,,/muse/elements/blink
2021-11-26 23:23:26.242,1.486619851460419,2.129153033959885,1.138939422966779,1.756693341717091,1.124671641706233,0.9732180127312136,0.5777910891897908,0.7088707584842038,1.29618285389981,0.6733192398508617,0.5583045246112632,0.9980804261664055,1.161960734701279,0.1164362751526039,1.485372175243638,1.045574529797164,1.09312692354451,-0.05753544663068004,0.6413841986453555,1.118723895786795,803.8461538461539,645.8974358974359,779.2673992673992,754.2857142857143,755.8974358974359,0.000061,0.218262,0.945862,33.533478,41.212158,-106.080933,1,1,4,1,1,90.000000
2021-11-26 23:23:26.463,,,,,,,,,,,,,,,,,,,,,,,,,,,,,,,,,,,,,,/muse/elements/blink
2021-11-26 23:23:27.242,1.784351291656666,2.129153033959885,1.138939422966779,1.782727895675395,1.337273182279151,0.9732180127312136,0.5777910891897908,0.7601843897903007,1.260890224108855,0.6733192398508617,0.5583045246112632,0.9980804261664055,1.059808354989098,0.1164362751526039,1.485372175243638,1.028486354514916,0.9522022887109084,-0.05753544663068004,0.6413841986453555,1.132265713045153,811.9047619047619,867.1062271062272,869.1208791208792,739.7802197802198,768.7912087912088,-0.221313,0.325745,0.953247,5.749664,5.517883,11.394653,1,1,4,4,1,90.000000
2021-11-26 23:23:27.600,,,,,,,,,,,,,,,,,,,,,,,,,,,,,,,,,,,,,,/muse/elements/blink
2021-11-26 23:23:28.242,1.784351291656666,2.129153033959885,1.138939422966779,1.782727895675395,1.337273182279151,0.9732180127312136,0.5777910891897908,0.7601843897903007,1.260890224108855,0.6733192398508617,0.5583045246112632,0.9980804261664055,1.059808354989098,0.1164362751526039,1.485372175243638,1.028486354514916,0.9522022887109084,-0.05753544663068004,0.6413841986453555,1.132265713045153,826.007326007326,22.56410256410257,680.952380952381,798.2051282051282,792.967032967033,0.229980,0.109436,0.989197,7.162781,1.786957,-0.299072,1,1,4,1,1,90.000000
2021-11-26 23:23:28.319,,,,,,,,,,,,,,,,,,,,,,,,,,,,,,,,,,,,,,/muse/elements/blink
2021-11-26 23:23:29.245,1.784351291656666,2.129153033959885,1.138939422966779,1.782727895675395,1.337273182279151,0.9732180127312136,0.5777910891897908,0.7601843897903007,1.260890224108855,0.6733192398508617,0.5583045246112632,0.9980804261664055,1.059808354989098,0.1164362751526039,1.485372175243638,1.028486354514916,0.9522022887109084,-0.05753544663068004,0.6413841986453555,1.132265713045153,811.5018315018315,465.3846153846154,771.2087912087912,785.7142857142858,770,0.112183,0.271851,0.980103,6.676788,-3.872986,-15.918121,1,2,4,1,2,90.000000
2021-11-26 23:23:30.044,,,,,,,,,,,,,,,,,,,,,,,,,,,,,,,,,,,,,,/muse/elements/jaw_clench
2021-11-26 23:23:30.241,1.784351291656666,2.129153033959885,1.138939422966779,1.782727895675395,1.337273182279151,0.9732180127312136,0.5777910891897908,0.7601843897903007,1.260890224108855,0.6733192398508617,0.5583045246112632,0.9980804261664055,1.059808354989098,0.1164362751526039,1.485372175243638,1.028486354514916,0.9522022887109084,-0.05753544663068004,0.6413841986453555,1.132265713045153,817.1428571428571,672.893772893773,830.4395604395604,858.2417582417582,768.3882783882784,-0.153870,0.316467,0.949951,1.271057,-3.461761,-2.945862,1,2,2,1,2,90.000000
2021-11-26 23:23:31.242,0.7308546331577754,2.129153033959885,1.072960668449898,1.098481549281443,0.6913762734274617,0.9732180127312136,0.4656618594294031,0.5418539022814245,0.9925091650175731,0.6733192398508617,0.6147742521852477,0.6965985332750194,1.165124279740565,0.1164362751526039,0.87345471518233,0.718715001064407,0.6190799955551637,-0.05753544663068004,0.6367185178827273,0.6903081403578554,797.3992673992674,704.3223443223443,811.9047619047619,842.1245421245421,666.8498168498169,-0.112305,0.278748,0.955505,3.327179,5.241241,19.484558,1,1,2,1,1,90.000000
2021-11-26 23:23:31.631,,,,,,,,,,,,,,,,,,,,,,,,,,,,,,,,,,,,,,/muse/elements/blink
2021-11-26 23:23:31.631,,,,,,,,,,,,,,,,,,,,,,,,,,,,,,,,,,,,,,/muse/elements/jaw_clench
2021-11-26 23:23:32.242,0.9665182779140516,2.129153033959885,1.182102783949562,0.7026754402793169,0.7811881977178826,0.9732180127312136,0.610080460056422,0.7542191130613655,0.8855304335193132,0.6733192398508617,0.6363878742248819,0.721686215301108,0.9212301999101024,0.1164362751526039,0.9322370518868379,0.6843507225471365,0.5297674479288993,-0.05753544663068004,0.6116552511023676,0.672687269164155,790.1465201465202,589.0842490842491,756.7032967032967,808.6813186813187,832.8571428571429,0.089905,0.380188,1.014587,12.299347,-11.170349,3.058014,1,1,4,1,1,90.000000
2021-11-26 23:23:32.584,,,,,,,,,,,,,,,,,,,,,,,,,,,,,,,,,,,,,,/muse/elements/jaw_clench
2021-11-26 23:23:33.242,1.929848556535884,2.129153033959885,1.192872249773662,0.5416412562711198,1.324106813231656,0.9732180127312136,0.6435960712711476,0.8213716076133926,1.100086246070843,0.6733192398508617,0.5347736321560549,0.6412865729783197,0.87841742937094,0.1164362751526039,0.9596499328078881,0.6727760457412478,0.9571897464752888,-0.05753544663068004,0.5213045981879185,0.7315573588908388,805.4578754578755,476.6666666666667,807.4725274725275,786.1172161172161,942.8571428571429,0.209839,0.218811,0.971436,-0.665436,-13.667603,-2.654266,1,1,4,1,1,90.000000
2021-11-26 23:23:34.242,1.679681256908947,2.129153033959885,1.192872249773662,0.5416412562711198,1.098955675743973,0.9732180127312136,0.6435960712711476,0.8213716076133926,1.274455617699232,0.6733192398508617,0.5347736321560549,0.6412865729783197,1.053252181318756,0.1164362751526039,0.9596499328078881,0.6727760457412478,0.8730502038383938,-0.05753544663068004,0.5213045981879185,0.7315573588908388,778.8644688644689,1155.201465201465,875.1648351648352,772.8205128205128,705.5311355311355,0.351685,0.250854,0.931335,2.145844,-21.712646,-10.213318,1,1,4,1,1,90.000000
2021-11-26 23:23:34.401,,,,,,,,,,,,,,,,,,,,,,,,,,,,,,,,,,,,,,/muse/elements/jaw_clench
2021-11-26 23:23:35.195,,,,,,,,,,,,,,,,,,,,,,,,,,,,,,,,,,,,,,/muse/elements/jaw_clench
2021-11-26 23:23:35.247,1.384099829512002,2.129153033959885,1.319270658531567,1.445842579234269,0.7627587490759502,0.9732180127312136,0.08190705886782171,0.9586008995149063,0.8186236598531129,0.6733192398508617,0.2346657984067273,0.8948699149098517,0.8688261937281461,0.1164362751526039,0.9879428180264095,1.174236818142183,0.8273133768950827,-0.05753544663068004,0.4799469015488311,1.199076693111212,801.8315018315019,874.3589743589744,839.7069597069598,778.8644688644689,782.0879120879121,0.437805,0.140137,0.914124,5.764618,13.174133,12.695618,1,1,4,1,1,90.000000
2021-11-26 23:23:35.883,,,,,,,,,,,,,,,,,,,,,,,,,,,,,,,,,,,,,,/muse/elements/blink
2021-11-26 23:23:36.038,,,,,,,,,,,,,,,,,,,,,,,,,,,,,,,,,,,,,,/muse/elements/jaw_clench
2021-11-26 23:23:36.250,1.314201901097595,2.129153033959885,1.308272787457204,1.491718470648656,0.6914327333537975,0.9732180127312136,0.5834513053837889,0.5136795564051194,0.3929607922319895,0.6733192398508617,0.3584876908022634,0.8716477861055911,0.7708194228441559,0.1164362751526039,0.8926316896250545,1.224014746028047,0.744830195430019,-0.05753544663068004,0.407978487511296,1.24142130033231,811.9047619047619,572.1611721611722,829.2307692307693,824.3956043956044,786.5201465201466,0.024048,0.017883,1.021606,1.861725,2.557068,0.014954,1,1,4,1,1,90.000000
2021-11-26 23:23:37.242,1.18789675824361,2.129153033959885,1.349169134454366,1.561599166582102,0.4942754594708428,0.9732180127312136,0.6596278848677,0.5003963953117715,0.4904326003618411,0.6733192398508617,0.4344000545147115,0.8258841034861292,0.6032094328242431,0.1164362751526039,0.8544611818880491,1.22894316436994,0.5113422921799282,-0.05753544663068004,0.4714274770720323,1.264450700498631,861.0622710622711,1270.842490842491,806.6666666666667,862.2710622710623,645.8974358974359,0.057068,-0.067322,1.004333,1.353302,-13.966675,33.638153,1,1,4,1,1,90.000000
2021-11-26 23:23:37.247,,,,,,,,,,,,,,,,,,,,,,,,,,,,,,,,,,,,,,/muse/elements/jaw_clench
2021-11-26 23:23:37.623,,,,,,,,,,,,,,,,,,,,,,,,,,,,,,,,,,,,,,/muse/elements/blink
2021-11-26 23:23:38.251,1.311900785951378,2.129153033959885,1.809816341744353,0.9032682149524599,0.5150216888917116,0.9732180127312136,0.9432799677583188,0.6203923762164882,0.8504156941723451,0.6733192398508617,0.6483433656890809,1.182994630211584,0.7758848969672152,0.1164362751526039,0.9062038251376376,1.271004124695502,0.568467995532922,-0.05753544663068004,0.5512592442327233,1.443586443672378,809.0842490842491,251.8315018315018,761.941391941392,807.8754578754579,765.1648351648352,0.288818,0.120728,0.953308,1.517792,-1.009369,-4.239349,1,1,4,1,1,90.000000
2021-11-26 23:23:38.329,,,,,,,,,,,,,,,,,,,,,,,,,,,,,,,,,,,,,,/muse/elements/jaw_clench
2021-11-26 23:23:38.570,,,,,,,,,,,,,,,,,,,,,,,,,,,,,,,,,,,,,,/muse/elements/jaw_clench
2021-11-26 23:23:39.242,0.8165674067449396,2.129153033959885,2.196517659627106,1.225979000677679,0.4174599138666347,0.9732180127312136,1.002748480263705,0.636894658847925,0.4340669960130646,0.6733192398508617,0.6003458315451305,0.7883241497462947,0.5946069167346731,0.1164362751526039,0.930832899446228,0.8151550497609804,0.5242884734690533,-0.05753544663068004,0.5558972694509724,0.6746113056229588,829.6336996336996,762.7472527472528,826.8131868131868,823.1868131868132,811.0989010989011,0.340393,0.129456,0.969116,2.751465,-12.119904,-1.315918,1,1,4,1,1,90.000000
2021-11-26 23:23:40.241,0.7176613756613452,2.129153033959885,2.109386420801805,0.9747612399508025,0.3969387275920476,0.9732180127312136,0.6114112967377361,0.5374060135444423,0.4473462041248351,0.6733192398508617,0.3774321339353693,0.89841269577972,0.5451205505852237,0.1164362751526039,0.8890993896728289,0.8518367492135454,0.4306812097231441,-0.05753544663068004,0.5635185957208069,0.6532886538161531,809.0842490842491,571.3553113553114,494.7985347985348,814.3223443223443,684.981684981685,0.337891,0.155396,0.943604,5.973969,-3.237457,-8.276825,1,1,4,1,1,90.000000
2021-11-26 23:23:40.395,,,,,,,,,,,,,,,,,,,,,,,,,,,,,,,,,,,,,,/muse/elements/jaw_clench
2021-11-26 23:23:40.773,,,,,,,,,,,,,,,,,,,,,,,,,,,,,,,,,,,,,,/muse/elements/blink
2021-11-26 23:23:41.250,1.277463577923891,2.129153033959885,2.123686823853947,0.8858709391653553,1.076706198743071,0.9732180127312136,0.4742640571101999,0.3769284679035806,0.7804464317550369,0.6733192398508617,0.2373374851626901,0.8435701250592954,0.8121629208413347,0.1164362751526039,0.924297480712937,0.9570165895884957,0.4332640596143872,-0.05753544663068004,0.5281695199297842,0.7144737917776154,804.2490842490843,842.9304029304029,806.6666666666667,790.952380952381,808.6813186813187,0.150818,0.528198,0.864441,14.908752,-10.295563,-11.731110,1,1,4,1,1,90.000000
2021-11-26 23:23:42.242,1.186051404875519,2.129153033959885,2.123686823853947,0.7162134078292357,1.123978583471128,0.9732180127312136,0.4742640571101999,0.5665822549401524,0.8646391259378799,0.6733192398508617,0.2373374851626901,0.5349039864300305,0.9904306672679061,0.1164362751526039,0.924297480712937,0.7623118013478563,0.6083896695169532,-0.05753544663068004,0.5281695199297842,0.8032466821513413,797.8021978021978,1139.487179487179,972.2710622710623,835.6776556776557,959.7802197802198,0.160400,0.511780,0.800659,-2.886047,-5.510406,19.521942,1,1,4,1,1,90.000000
2021-11-26 23:23:42.750,,,,,,,,,,,,,,,,,,,,,,,,,,,,,,,,,,,,,,/muse/elements/blink
2021-11-26 23:23:43.242,0.1457020864912608,2.129153033959885,2.123686823853947,1.024237859518973,0.5265733187792995,0.9732180127312136,0.4742640571101999,0.6802987420360302,0.6821466335777072,0.6733192398508617,0.2373374851626901,0.6152900798282961,0.6891311243406023,0.1164362751526039,0.924297480712937,0.6654341050933531,0.6958942179327242,-0.05753544663068004,0.5281695199297842,0.6262336061506149,810.6959706959707,590.2930402930403,987.1794871794872,775.6410256410256,653.956043956044,0.163879,0.487366,0.958740,2.018738,-8.628235,-6.863708,1,1,4,1,1,90.000000
2021-11-26 23:23:44.127,,,,,,,,,,,,,,,,,,,,,,,,,,,,,,,,,,,,,,/muse/elements/blink
2021-11-26 23:23:44.247,0.2649181725137278,2.129153033959885,2.123686823853947,1.204885885508352,0.4635227245599551,0.9732180127312136,0.4742640571101999,0.8218900983876279,0.5803947164004705,0.6733192398508617,0.2373374851626901,0.5957880213482082,0.6557337219848696,0.1164362751526039,0.924297480712937,0.5418604246788936,0.7013131370105443,-0.05753544663068004,0.5281695199297842,0.4456599227219629,847.7655677655678,707.1428571428571,898.5347985347986,829.2307692307693,848.1684981684982,0.248230,0.306580,0.890869,1.375732,4.112244,26.595001,1,1,4,1,1,90.000000
2021-11-26 23:23:45.247,0.2649181725137278,2.129153033959885,2.123686823853947,1.204885885508352,0.4635227245599551,0.9732180127312136,0.4742640571101999,0.8218900983876279,0.5803947164004705,0.6733192398508617,0.2373374851626901,0.5957880213482082,0.6557337219848696,0.1164362751526039,0.924297480712937,0.5418604246788936,0.7013131370105443,-0.05753544663068004,0.5281695199297842,0.4456599227219629,832.0512820512821,536.3003663003664,818.3516483516484,833.6630036630037,873.956043956044,0.123535,0.395142,0.916565,7.648773,2.228088,-49.294586,1,2,4,1,2,90.000000
2021-11-26 23:23:45.261,,,,,,,,,,,,,,,,,,,,,,,,,,,,,,,,,,,,,,/muse/elements/jaw_clench
2021-11-26 23:23:45.634,,,,,,,,,,,,,,,,,,,,,,,,,,,,,,,,,,,,,,/muse/elements/jaw_clench
2021-11-26 23:23:45.875,,,,,,,,,,,,,,,,,,,,,,,,,,,,,,,,,,,,,,/muse/elements/jaw_clench
2021-11-26 23:23:46.163,,,,,,,,,,,,,,,,,,,,,,,,,,,,,,,,,,,,,,/muse/elements/jaw_clench
2021-11-26 23:23:46.242,0.8205299837054704,2.129153033959885,1.924047814675979,0.9380123949270005,0.597003301754703,0.9732180127312136,0.6038107497188072,0.3273887276612907,0.9541624826174587,0.6733192398508617,0.3264670162437389,0.8039300410569166,0.7414467028251606,0.1164362751526039,0.9142513556646296,0.7672738841325043,0.8687252525459125,-0.05753544663068004,0.7235996942445927,0.6543607205363587,809.0842490842491,641.8681318681319,786.5201465201466,807.0695970695971,686.1904761904763,-0.043213,0.431519,0.909851,4.665527,-19.207916,0.635529,1,1,4,1,1,90.000000
2021-11-26 23:23:47.242,0.649588500637862,2.129153033959885,1.952316672046094,0.9324153372943933,0.3726454979786498,0.9732180127312136,0.5539794001520422,0.5213048987325748,0.7902838834429512,0.6733192398508617,0.5543165218839158,0.8205499259748661,0.7719362560026743,0.1164362751526039,0.9918756178357283,0.5794425189078688,0.846114084379566,-0.05753544663068004,0.5707087020609125,0.7034143573217218,842.9304029304029,419.047619047619,791.3553113553114,819.5604395604396,836.8864468864469,0.134705,0.398438,0.867004,11.043243,-27.260437,7.521667,1,1,4,1,1,90.000000
2021-11-26 23:23:47.616,,,,,,,,,,,,,,,,,,,,,,,,,,,,,,,,,,,,,,/muse/elements/jaw_clench
2021-11-26 23:23:47.795,,,,,,,,,,,,,,,,,,,,,,,,,,,,,,,,,,,,,,/muse/elements/jaw_clench
2021-11-26 23:23:48.242,0.5273759867221122,2.129153033959885,1.80295539324113,0.7798454853492373,0.2903726442495176,0.9732180127312136,0.5785838018031699,0.4116381015923605,0.9263535814575059,0.6733192398508617,0.5492013006848016,0.706529211206208,0.6378873932033505,0.1164362751526039,1.05685866245887,0.7234979469996562,0.5934341142885289,-0.05753544663068004,0.3474667199675596,0.6537582755043524,821.978021978022,871.941391941392,759.1208791208792,797.8021978021978,820.7692307692308,0.428101,0.162415,0.878296,-2.452393,-6.587067,-0.209351,1,1,4,1,1,90.000000
2021-11-26 23:23:49.242,0.8731474546490758,2.129153033959885,1.80295539324113,1.030869970097547,0.4065851903962665,0.9732180127312136,0.5785838018031699,0.2615263301636848,0.8195549658948564,0.6733192398508617,0.5492013006848016,0.7979290374496875,0.6893219323066446,0.1164362751526039,1.05685866245887,0.8522384209484932,0.8125649413270314,-0.05753544663068004,0.3474667199675596,0.7284701760606992,844.9450549450549,569.3406593406594,826.8131868131868,818.3516483516484,743.0036630036631,0.412048,0.147339,0.890076,7.529144,-3.297272,0.284119,1,1,4,1,1,90.000000
2021-11-26 23:23:50.242,0.9467117089942173,2.129153033959885,1.274861845731335,0.7865068313535643,0.3180614705759287,0.9732180127312136,0.8229085387509791,0.290476859279465,0.4922975441790032,0.6733192398508617,0.4533907305246955,0.7953617505104184,0.6289919511679983,0.1164362751526039,1.21426173303692,0.8168364992720314,0.7236949269920954,-0.05753544663068004,0.6436752661024768,0.8423721149184129,805.4578754578755,602.7838827838827,868.3150183150184,799.8168498168499,746.6300366300367,0.437134,0.188538,0.895813,8.112335,-4.568329,1.181335,1,1,4,1,1,90.000000
2021-11-26 23:23:50.671,,,,,,,,,,,,,,,,,,,,,,,,,,,,,,,,,,,,,,/muse/elements/blink
2021-11-26 23:23:51.242,1.086589883180548,2.129153033959885,1.274861845731335,0.6507530425257703,0.2334237927816008,0.9732180127312136,0.8229085387509791,0.1519712873421983,0.4010712532359699,0.6733192398508617,0.4533907305246955,0.6277319835933148,0.6532563092043783,0.1164362751526039,1.21426173303692,0.6954002021123011,0.6551357360710013,-0.05753544663068004,0.6436752661024768,0.8786948456371988,828.4249084249085,437.1794871794872,724.8717948717949,868.7179487179487,925.934065934066,0.053711,0.049988,0.905823,-36.539154,41.032715,113.684845,1,1,4,1,1,90.000000
2021-11-26 23:23:51.269,,,,,,,,,,,,,,,,,,,,,,,,,,,,,,,,,,,,,,/muse/elements/blink
2021-11-26 23:23:51.752,,,,,,,,,,,,,,,,,,,,,,,,,,,,,,,,,,,,,,/muse/elements/blink
2021-11-26 23:23:52.242,1.010573192955606,2.129153033959885,1.268224903220901,0.5505705553573937,-0.08959257503223382,0.9732180127312136,0.8703940548117408,0.190261900958983,0.3802877176394646,0.6733192398508617,0.4384304915484296,0.4731449556185747,0.6423429356516038,0.1164362751526039,1.194086292015081,0.4847949848175191,0.4147933954997746,-0.05753544663068004,0.6551005523517811,0.6918317066394256,829.6336996336996,811.0989010989011,850.5860805860806,819.1575091575091,722.8571428571429,0.043884,0.458191,1.006775,-5.241241,-1.525269,20.381775,1,1,4,1,1,90.000000
2021-11-26 23:23:52.582,,,,,,,,,,,,,,,,,,,,,,,,,,,,,,,,,,,,,,/muse/elements/blink
2021-11-26 23:23:53.245,1.010573192955606,2.129153033959885,1.268224903220901,0.5505705553573937,-0.08959257503223382,0.9732180127312136,0.8703940548117408,0.190261900958983,0.3802877176394646,0.6733192398508617,0.4384304915484296,0.4731449556185747,0.6423429356516038,0.1164362751526039,1.194086292015081,0.4847949848175191,0.4147933954997746,-0.05753544663068004,0.6551005523517811,0.6918317066394256,772.014652014652,1634.285714285714,784.1025641025641,789.3406593406594,814.7252747252747,-0.070312,0.328918,0.901733,11.065674,-7.416992,-15.678864,1,2,4,1,2,90.000000
2021-11-26 23:23:54.242,1.010573192955606,2.129153033959885,1.268224903220901,0.5505705553573937,-0.08959257503223382,0.9732180127312136,0.8703940548117408,0.190261900958983,0.3802877176394646,0.6733192398508617,0.4384304915484296,0.4731449556185747,0.6423429356516038,0.1164362751526039,1.194086292015081,0.4847949848175191,0.4147933954997746,-0.05753544663068004,0.6551005523517811,0.6918317066394256,817.5457875457876,464.1758241758242,1239.41391941392,821.1721611721612,733.7362637362637,-0.133179,0.350403,0.805359,-6.998291,2.654266,8.119812,1,2,4,1,2,90.000000
2021-11-26 23:23:55.244,1.010573192955606,2.129153033959885,1.268224903220901,0.5505705553573937,-0.08959257503223382,0.9732180127312136,0.8703940548117408,0.190261900958983,0.3802877176394646,0.6733192398508617,0.4384304915484296,0.4731449556185747,0.6423429356516038,0.1164362751526039,1.194086292015081,0.4847949848175191,0.4147933954997746,-0.05753544663068004,0.6551005523517811,0.6918317066394256,756.3003663003664,0.4029304029304029,794.981684981685,765.9706959706959,797.3992673992674,-0.247803,0.405884,0.976013,16.777954,-2.482300,-11.925507,1,2,4,2,2,90.000000
2021-11-26 23:23:55.387,,,,,,,,,,,,,,,,,,,,,,,,,,,,,,,,,,,,,,/muse/elements/blink
2021-11-26 23:23:56.250,1.010573192955606,2.129153033959885,1.268224903220901,0.5505705553573937,-0.08959257503223382,0.9732180127312136,0.8703940548117408,0.190261900958983,0.3802877176394646,0.6733192398508617,0.4384304915484296,0.4731449556185747,0.6423429356516038,0.1164362751526039,1.194086292015081,0.4847949848175191,0.4147933954997746,-0.05753544663068004,0.6551005523517811,0.6918317066394256,680.1465201465202,657.1794871794872,792.1611721611722,709.5604395604396,839.7069597069598,-0.162476,0.468750,0.904602,-7.671204,-8.807678,29.548340,1,2,4,1,2,90.000000
2021-11-26 23:23:56.457,,,,,,,,,,,,,,,,,,,,,,,,,,,,,,,,,,,,,,/muse/elements/blink
2021-11-26 23:23:57.242,1.010573192955606,2.129153033959885,1.268224903220901,0.5505705553573937,-0.08959257503223382,0.9732180127312136,0.8703940548117408,0.190261900958983,0.3802877176394646,0.6733192398508617,0.4384304915484296,0.4731449556185747,0.6423429356516038,0.1164362751526039,1.194086292015081,0.4847949848175191,0.4147933954997746,-0.05753544663068004,0.6551005523517811,0.6918317066394256,815.1282051282052,707.948717948718,824.7985347985348,821.1721611721612,894.1025641025641,-0.217346,0.391052,0.900024,-6.422577,-34.572754,-31.357727,1,2,4,1,2,90.000000
2021-11-26 23:23:58.241,1.010573192955606,2.129153033959885,1.268224903220901,0.5505705553573937,-0.08959257503223382,0.9732180127312136,0.8703940548117408,0.190261900958983,0.3802877176394646,0.6733192398508617,0.4384304915484296,0.4731449556185747,0.6423429356516038,0.1164362751526039,1.194086292015081,0.4847949848175191,0.4147933954997746,-0.05753544663068004,0.6551005523517811,0.6918317066394256,815.934065934066,967.032967032967,847.7655677655678,810.2930402930403,690.2197802197802,-0.165222,0.329163,1.007690,-12.546082,-23.641663,-9.166565,1,2,4,1,2,90.000000
2021-11-26 23:23:58.355,,,,,,,,,,,,,,,,,,,,,,,,,,,,,,,,,,,,,,/muse/elements/blink
2021-11-26 23:23:59.210,,,,,,,,,,,,,,,,,,,,,,,,,,,,,,,,,,,,,,/muse/elements/jaw_clench
2021-11-26 23:23:59.241,1.010573192955606,2.129153033959885,1.349578656001031,1.298617231074823,-0.08959257503223382,0.9732180127312136,1.022846764460231,0.9455408587273486,0.3802877176394646,0.6733192398508617,0.8728331306912328,0.6071298482792318,0.6423429356516038,0.1164362751526039,1.040529697832788,0.6484982393414406,0.4147933954997746,-0.05753544663068004,0.6686910173297366,0.6343835766610451,804.2490842490843,683.7728937728938,836.0805860805862,816.7399267399268,1005.714285714286,-0.117920,0.206238,0.992004,7.536621,-0.209351,-1.368256,1,2,4,1,2,90.000000
2021-11-26 23:23:59.659,,,,,,,,,,,,,,,,,,,,,,,,,,,,,,,,,,,,,,/muse/elements/jaw_clench
2021-11-26 23:24:00.242,1.332671272660557,2.129153033959885,1.264572301358931,1.468462666196403,0.9084412885106546,0.9732180127312136,0.8220195914943034,0.8002088989635266,1.493669885890821,0.6733192398508617,0.6950501925091381,0.8992423061574973,1.374035981919621,0.1164362751526039,0.9570416059337615,0.6728376379343478,1.00241261201738,-0.05753544663068004,0.7323000411704825,0.7030610811169158,793.3699633699634,381.5750915750916,766.7765567765568,793.7728937728938,843.7362637362637,-0.119751,0.344788,0.999023,5.121613,-7.192688,-8.478699,1,1,4,1,1,90.000000
2021-11-26 23:24:00.280,,,,,,,,,,,,,,,,,,,,,,,,,,,,,,,,,,,,,,/muse/elements/blink
2021-11-26 23:24:00.789,,,,,,,,,,,,,,,,,,,,,,,,,,,,,,,,,,,,,,/muse/elements/jaw_clench
2021-11-26 23:24:01.242,1.481164369148765,2.129153033959885,1.510552520022504,1.504405939957843,0.5108262936480678,0.9732180127312136,1.162652116889007,0.5089990239993206,1.073754037973295,0.6733192398508617,0.8285267391325057,0.8944520739192429,1.111303583288539,0.1164362751526039,1.08397875630769,0.7638880010106393,1.109910470007463,-0.05753544663068004,0.4510891861480243,0.7214791427513955,807.0695970695971,814.3223443223443,844.1391941391942,819.5604395604396,735.7509157509157,-0.106689,0.298157,0.953491,5.256195,-4.433746,0.448608,1,1,4,1,1,85.000000
2021-11-26 23:24:01.385,,,,,,,,,,,,,,,,,,,,,,,,,,,,,,,,,,,,,,/muse/elements/jaw_clench
2021-11-26 23:24:01.629,,,,,,,,,,,,,,,,,,,,,,,,,,,,,,,,,,,,,,/muse/elements/jaw_clench
2021-11-26 23:24:02.242,1.357944644951728,2.129153033959885,1.262814414383107,1.455168410099248,0.6158291761560922,0.9732180127312136,0.9519855565150601,0.8636573672331774,0.857438706762555,0.6733192398508617,0.7355704664669788,0.7965984526017487,0.7788008304345596,0.1164362751526039,1.045715543667071,0.6779515626691577,0.9720746255785712,-0.05753544663068004,0.6047388357088076,0.403941145751566,811.0989010989011,484.3223443223443,781.6849816849817,804.6520146520147,851.7948717948718,-0.264221,0.444214,0.881104,0.568237,-0.643005,-0.785065,1,1,4,1,1,85.000000
2021-11-26 23:24:03.243,1.132635939591099,2.129153033959885,1.107807542426911,1.465167886409152,1.151741021576763,0.9732180127312136,0.2414019598079461,0.9505369944939787,1.125179667810559,0.6733192398508617,0.4263648036000964,0.7395374396303601,0.9227879568677839,0.1164362751526039,0.9752761683268123,0.6579239825041813,1.175849369800654,-0.05753544663068004,0.7365861938386171,0.3575024795651563,803.4432234432235,1175.750915750916,797.8021978021978,810.2930402930403,763.956043956044,-0.314880,0.382141,0.802795,3.259888,-25.137024,2.856140,1,1,4,1,1,85.000000
2021-11-26 23:24:04.241,1.021541225683589,2.129153033959885,1.107807542426911,1.629032050946472,1.182616213415948,0.9732180127312136,0.2414019598079461,1.165465940351013,1.175314617667423,0.6733192398508617,0.4263648036000964,1.017570491338851,1.239917486204542,0.1164362751526039,0.9752761683268123,0.8056085822140848,1.323010844978497,-0.05753544663068004,0.7365861938386171,0.6931594755398852,707.1428571428571,19.74358974358974,823.5897435897436,731.7216117216118,704.7252747252747,-0.186951,0.321106,0.918823,-0.867310,-7.043152,3.140259,1,1,4,1,1,85.000000
2021-11-26 23:24:04.676,,,,,,,,,,,,,,,,,,,,,,,,,,,,,,,,,,,,,,/muse/elements/blink
2021-11-26 23:24:04.981,,,,,,,,,,,,,,,,,,,,,,,,,,,,,,,,,,,,,,/muse/elements/blink
2021-11-26 23:24:05.249,1.021541225683589,2.129153033959885,1.107807542426911,1.697648363510936,1.182616213415948,0.9732180127312136,0.2414019598079461,0.7661758756146528,1.175314617667423,0.6733192398508617,0.4263648036000964,0.6639515405138555,1.239917486204542,0.1164362751526039,0.9752761683268123,0.835411698253783,1.323010844978497,-0.05753544663068004,0.7365861938386171,0.7239676444697756,907.8021978021978,1623.809523809524,855.0183150183151,1006.117216117216,765.9706959706959,-0.086182,0.305237,0.963562,8.471222,17.435913,-1.914062,1,1,1,1,1,85.000000
2021-11-26 23:24:05.567,,,,,,,,,,,,,,,,,,,,,,,,,,,,,,,,,,,,,,/muse/elements/jaw_clench
2021-11-26 23:24:05.896,,,,,,,,,,,,,,,,,,,,,,,,,,,,,,,,,,,,,,/muse/elements/jaw_clench
2021-11-26 23:24:06.241,1.021541225683589,2.129153033959885,1.107807542426911,1.697648363510936,1.182616213415948,0.9732180127312136,0.2414019598079461,0.7661758756146528,1.175314617667423,0.6733192398508617,0.4263648036000964,0.6639515405138555,1.239917486204542,0.1164362751526039,0.9752761683268123,0.835411698253783,1.323010844978497,-0.05753544663068004,0.7365861938386171,0.7239676444697756,814.3223443223443,0,762.7472527472528,785.7142857142858,859.047619047619,-0.132629,0.293091,0.933289,7.132874,-16.179810,-9.106750,1,1,4,1,1,85.000000
2021-11-26 23:24:06.267,,,,,,,,,,,,,,,,,,,,,,,,,,,,,,,,,,,,,,/muse/elements/jaw_clench
2021-11-26 23:24:06.703,,,,,,,,,,,,,,,,,,,,,,,,,,,,,,,,,,,,,,/muse/elements/blink
2021-11-26 23:24:06.967,,,,,,,,,,,,,,,,,,,,,,,,,,,,,,,,,,,,,,/muse/elements/jaw_clench
2021-11-26 23:24:07.207,,,,,,,,,,,,,,,,,,,,,,,,,,,,,,,,,,,,,,/muse/elements/blink
2021-11-26 23:24:07.242,1.021541225683589,2.129153033959885,1.107807542426911,1.697648363510936,1.182616213415948,0.9732180127312136,0.2414019598079461,0.7661758756146528,1.175314617667423,0.6733192398508617,0.4263648036000964,0.6639515405138555,1.239917486204542,0.1164362751526039,0.9752761683268123,0.835411698253783,1.323010844978497,-0.05753544663068004,0.7365861938386171,0.7239676444697756,891.6849816849817,0,857.032967032967,929.1575091575091,676.5201465201466,-0.206665,0.094604,0.795715,65.564117,45.728149,-82.289734,1,2,2,1,2,85.000000
2021-11-26 23:24:07.491,,,,,,,,,,,,,,,,,,,,,,,,,,,,,,,,,,,,,,/muse/elements/jaw_clench
2021-11-26 23:24:07.580,,,,,,,,,,,,,,,,,,,,,,,,,,,,,,,,,,,,,,/muse/elements/blink
2021-11-26 23:24:08.103,,,,,,,,,,,,,,,,,,,,,,,,,,,,,,,,,,,,,,/muse/elements/jaw_clench
2021-11-26 23:24:08.246,1.021541225683589,2.129153033959885,1.107807542426911,1.697648363510936,1.182616213415948,0.9732180127312136,0.2414019598079461,0.7661758756146528,1.175314617667423,0.6733192398508617,0.4263648036000964,0.6639515405138555,1.239917486204542,0.1164362751526039,0.9752761683268123,0.835411698253783,1.323010844978497,-0.05753544663068004,0.7365861938386171,0.7239676444697756,787.7289377289378,0,582.2344322344322,730.9157509157509,842.9304029304029,-0.399414,0.309143,0.863159,8.448792,-21.652832,-26.445465,1,2,2,1,2,85.000000
2021-11-26 23:24:08.714,,,,,,,,,,,,,,,,,,,,,,,,,,,,,,,,,,,,,,/muse/elements/blink
2021-11-26 23:24:08.801,,,,,,,,,,,,,,,,,,,,,,,,,,,,,,,,,,,,,,/muse/elements/jaw_clench
2021-11-26 23:24:09.245,1.021541225683589,2.129153033959885,1.107807542426911,1.697648363510936,1.182616213415948,0.9732180127312136,0.2414019598079461,0.7661758756146528,1.175314617667423,0.6733192398508617,0.4263648036000964,0.6639515405138555,1.239917486204542,0.1164362751526039,0.9752761683268123,0.835411698253783,1.323010844978497,-0.05753544663068004,0.7365861938386171,0.7239676444697756,842.1245421245421,0,820.3663003663004,801.025641025641,891.2820512820513,-0.138794,0.289856,1.035095,1.988831,-2.878571,11.783447,1,2,2,1,2,85.000000
2021-11-26 23:24:09.541,,,,,,,,,,,,,,,,,,,,,,,,,,,,,,,,,,,,,,/muse/elements/jaw_clench
2021-11-26 23:24:10.241,1.021541225683589,2.129153033959885,1.107807542426911,1.697648363510936,1.182616213415948,0.9732180127312136,0.2414019598079461,0.7661758756146528,1.175314617667423,0.6733192398508617,0.4263648036000964,0.6639515405138555,1.239917486204542,0.1164362751526039,0.9752761683268123,0.835411698253783,1.323010844978497,-0.05753544663068004,0.7365861938386171,0.7239676444697756,796.996336996337,553.2234432234433,826.4102564102565,827.6190476190476,709.1575091575091,0.268311,0.244385,0.962036,3.858032,-18.288269,5.121613,1,2,2,1,2,85.000000
2021-11-26 23:24:10.372,,,,,,,,,,,,,,,,,,,,,,,,,,,,,,,,,,,,,,/muse/elements/jaw_clench
2021-11-26 23:24:10.550,,,,,,,,,,,,,,,,,,,,,,,,,,,,,,,,,,,,,,/muse/elements/jaw_clench
2021-11-26 23:24:10.882,,,,,,,,,,,,,,,,,,,,,,,,,,,,,,,,,,,,,,/muse/elements/jaw_clench
2021-11-26 23:24:11.248,1.311798175694802,2.129153033959885,1.26524769720598,1.391409023606631,1.031320047367294,0.9732180127312136,0.8978963360382457,1.079106360856055,1.0364029458557,0.6733192398508617,0.6536246948224039,0.9571853051503398,0.7419806244605701,0.1164362751526039,0.9062158265686499,0.8650648301551572,0.9455003460021733,-0.05753544663068004,0.6001094042091732,0.8108096140645072,821.1721611721612,190.1831501831502,1314.761904761905,845.3479853479854,1034.725274725275,0.362610,0.283691,0.923950,13.690033,10.646973,18.654633,1,1,4,1,1,90.000000
2021-11-26 23:24:11.392,,,,,,,,,,,,,,,,,,,,,,,,,,,,,,,,,,,,,,/muse/elements/jaw_clench
2021-11-26 23:24:11.573,,,,,,,,,,,,,,,,,,,,,,,,,,,,,,,,,,,,,,/muse/elements/blink
2021-11-26 23:24:11.752,,,,,,,,,,,,,,,,,,,,,,,,,,,,,,,,,,,,,,/muse/elements/blink
2021-11-26 23:24:12.173,,,,,,,,,,,,,,,,,,,,,,,,,,,,,,,,,,,,,,/muse/elements/jaw_clench
