TimeStamp,Delta_TP9,Delta_AF7,Delta_AF8,Delta_TP10,Theta_TP9,Theta_AF7,Theta_AF8,Theta_TP10,Alpha_TP9,Alpha_AF7,Alpha_AF8,Alpha_TP10,Beta_TP9,Beta_AF7,Beta_AF8,Beta_TP10,Gamma_TP9,Gamma_AF7,Gamma_AF8,Gamma_TP10,RAW_TP9,RAW_AF7,RAW_AF8,RAW_TP10,AUX_RIGHT,Accelerometer_X,Accelerometer_Y,Accelerometer_Z,Gyro_X,Gyro_Y,Gyro_Z,HeadBandOn,HSI_TP9,HSI_AF7,HSI_AF8,HSI_TP10,Battery,Elements
2021-11-11 01:08:01.634,1.13041100640814,0.8279154654225817,0.7884405901734071,1.311286455036542,1.167468734962698,0.02520463208596735,0.7470639884812434,0.6754026390916951,0.7135115034047195,0.1611231594226582,0.5351162420003469,0.7471177965659034,1.009768071961189,0.846508246805057,0.5405063824737953,0.8639820934033957,1.223703270279597,0.1717471087439869,0.5477470269635157,0.5221268620520887,466.5934065934066,754.6886446886447,23.36996336996337,774.0293040293041,664.4322344322344,-0.121887,0.022034,0.998779,4.755249,-4.844971,-2.235565,1,1,1,4,1,40.000000
2021-11-11 01:08:01.955,,,,,,,,,,,,,,,,,,,,,,,,,,,,,,,,,,,,,,/muse/elements/jaw_clench
2021-11-11 01:08:02.135,,,,,,,,,,,,,,,,,,,,,,,,,,,,,,,,,,,,,,/muse/elements/blink
2021-11-11 01:08:02.135,,,,,,,,,,,,,,,,,,,,,,,,,,,,,,,,,,,,,,/muse/elements/jaw_clench
2021-11-11 01:08:02.626,1.13041100640814,1.37609731909624,0.7884405901734071,1.196988867909027,1.167468734962698,0.5930452110090498,0.7470639884812434,0.6823070575829252,0.7135115034047195,0.260845371936279,0.5351162420003469,0.6613104546875438,1.009768071961189,0.8715515723640487,0.5405063824737953,0.8633636727191697,1.223703270279597,0.2157826590068202,0.5477470269635157,0.5115234208872756,492.3809523809524,770.4029304029305,170.8424908424909,737.7655677655678,626.5567765567765,-0.265442,0.123230,0.977356,17.420959,1.457977,-3.289795,1,1,1,2,1,40.000000
2021-11-11 01:08:03.550,,,,,,,,,,,,,,,,,,,,,,,,,,,,,,,,,,,,,,/muse/elements/blink
2021-11-11 01:08:03.629,1.13041100640814,1.738495010381661,0.7884405901734071,1.243654651257116,1.167468734962698,0.7072859212921211,0.7470639884812434,0.6448444566289,0.7135115034047195,0.4397415278453974,0.5351162420003469,0.6070424750532204,1.009768071961189,0.8293801136282702,0.5405063824737953,0.8317619194304801,1.223703270279597,0.3283025379803119,0.5477470269635157,0.3996625596187728,820.3663003663004,728.4981684981685,20.54945054945055,981.5384615384615,1463.040293040293,-0.317871,0.046570,0.933716,-3.850555,-3.536530,-15.925598,1,1,1,1,1,40.000000
2021-11-11 01:08:03.966,,,,,,,,,,,,,,,,,,,,,,,,,,,,,,,,,,,,,,/muse/elements/blink
2021-11-11 01:08:04.168,,,,,,,,,,,,,,,,,,,,,,,,,,,,,,,,,,,,,,/muse/elements/blink
2021-11-11 01:08:04.483,,,,,,,,,,,,,,,,,,,,,,,,,,,,,,,,,,,,,,/muse/elements/blink
2021-11-11 01:08:04.626,1.13041100640814,1.0801682077159,0.7884405901734071,1.243654651257116,1.167468734962698,0.8140218633063502,0.7470639884812434,0.6448444566289,0.7135115034047195,0.8849727078862197,0.5351162420003469,0.6070424750532204,1.009768071961189,0.7593599661498228,0.5405063824737953,0.8317619194304801,1.223703270279597,0.4983097307188517,0.5477470269635157,0.3996625596187728,511.3186813186813,732.5274725274726,1623.809523809524,625.3479853479854,162.7838827838828,-0.129822,0.095825,0.972839,1.592560,5.345917,42.752380,1,1,1,2,1,40.000000
2021-11-11 01:08:05.002,,,,,,,,,,,,,,,,,,,,,,,,,,,,,,,,,,,,,,/muse/elements/jaw_clench
2021-11-11 01:08:05.629,1.13041100640814,1.483194952187527,0.7884405901734071,1.243654651257116,1.167468734962698,0.8979046787500485,0.7470639884812434,0.6448444566289,0.7135115034047195,0.9525909480342467,0.5351162420003469,0.6070424750532204,1.009768071961189,0.7674630470870685,0.5405063824737953,0.8317619194304801,1.223703270279597,0.4209264625252783,0.5477470269635157,0.3996625596187728,637.8388278388279,772.4175824175825,13.6996336996337,809.4871794871796,953.3333333333334,-0.190125,-0.023132,1.014648,-1.188812,-16.972351,-4.037476,1,2,1,2,2,40.000000
2021-11-11 01:08:05.800,,,,,,,,,,,,,,,,,,,,,,,,,,,,,,,,,,,,,,/muse/elements/jaw_clench
2021-11-11 01:08:05.986,,,,,,,,,,,,,,,,,,,,,,,,,,,,,,,,,,,,,,/muse/elements/blink
2021-11-11 01:08:06.627,1.13041100640814,1.351860603260836,0.7884405901734071,1.243654651257116,1.167468734962698,0.729068002019616,0.7470639884812434,0.6448444566289,0.7135115034047195,0.4394835978407053,0.5351162420003469,0.6070424750532204,1.009768071961189,0.671712496000656,0.5405063824737953,0.8317619194304801,1.223703270279597,0.1946733057539939,0.5477470269635157,0.3996625596187728,680.1465201465202,747.032967032967,97.91208791208791,816.3369963369963,890.0732600732601,-0.367126,-0.096008,0.959839,6.916046,3.454285,-16.127472,1,2,1,1,2,40.000000
2021-11-11 01:08:07.211,,,,,,,,,,,,,,,,,,,,,,,,,,,,,,,,,,,,,,/muse/elements/blink
2021-11-11 01:08:07.627,1.13041100640814,1.17681556088336,0.7884405901734071,1.243654651257116,1.167468734962698,0.8199792679366028,0.7470639884812434,0.6448444566289,0.7135115034047195,0.4847730652776686,0.5351162420003469,0.6070424750532204,1.009768071961189,0.646821764966889,0.5405063824737953,0.8317619194304801,1.223703270279597,0.393411236772729,0.5477470269635157,0.3996625596187728,528.2417582417582,773.2234432234433,240.1465201465201,796.5934065934066,606.4102564102565,-0.216797,0.073792,0.974243,-4.231873,-1.293488,-20.920105,1,2,1,2,2,40.000000
2021-11-11 01:08:07.646,,,,,,,,,,,,,,,,,,,,,,,,,,,,,,,,,,,,,,/muse/elements/blink
2021-11-11 01:08:08.036,,,,,,,,,,,,,,,,,,,,,,,,,,,,,,,,,,,,,,/muse/elements/blink
2021-11-11 01:08:08.334,,,,,,,,,,,,,,,,,,,,,,,,,,,,,,,,,,,,,,/muse/elements/blink
2021-11-11 01:08:08.626,1.13041100640814,1.498942451484389,0.7884405901734071,1.243654651257116,1.167468734962698,0.8599756861514104,0.7470639884812434,0.6448444566289,0.7135115034047195,0.5757236897797781,0.5351162420003469,0.6070424750532204,1.009768071961189,0.6391569486207777,0.5405063824737953,0.8317619194304801,1.223703270279597,0.5000445918304903,0.5477470269635157,0.3996625596187728,887.2527472527473,741.7948717948718,448.0586080586081,898.9377289377289,567.7289377289377,-0.401184,0.170715,0.967712,2.220612,-12.747955,33.398895,1,2,1,2,2,40.000000
2021-11-11 01:08:08.744,,,,,,,,,,,,,,,,,,,,,,,,,,,,,,,,,,,,,,/muse/elements/blink
2021-11-11 01:08:09.251,,,,,,,,,,,,,,,,,,,,,,,,,,,,,,,,,,,,,,/muse/elements/blink
2021-11-11 01:08:09.635,1.13041100640814,1.59404339839816,0.7884405901734071,1.243654651257116,1.167468734962698,1.099793043014123,0.7470639884812434,0.6448444566289,0.7135115034047195,0.8189336262771243,0.5351162420003469,0.6070424750532204,1.009768071961189,0.723076712074544,0.5405063824737953,0.8317619194304801,1.223703270279597,0.3243718175440072,0.5477470269635157,0.3996625596187728,1102.417582417582,794.981684981685,690.6227106227107,853.8095238095239,954.1391941391942,-0.319641,0.052795,0.958191,-0.067291,-0.971985,5.876770,1,2,1,2,2,40.000000
2021-11-11 01:08:10.475,,,,,,,,,,,,,,,,,,,,,,,,,,,,,,,,,,,,,,/muse/elements/blink
2021-11-11 01:08:10.627,1.13041100640814,1.342153066464015,0.7884405901734071,1.243654651257116,1.167468734962698,0.7002350047204177,0.7470639884812434,0.6448444566289,0.7135115034047195,0.4266979896731022,0.5351162420003469,0.6070424750532204,1.009768071961189,0.4793983029700784,0.5405063824737953,0.8317619194304801,1.223703270279597,0.307412362638848,0.5477470269635157,0.3996625596187728,1156.813186813187,782.4908424908425,642.6739926739926,904.981684981685,784.5054945054945,-0.275696,0.052185,0.957947,16.755524,-1.988831,-10.789032,1,2,1,2,2,40.000000
2021-11-11 01:08:11.627,1.13041100640814,1.20522025565678,0.7884405901734071,1.243654651257116,1.167468734962698,0.1778591086235916,0.7470639884812434,0.6448444566289,0.7135115034047195,0.175203023644423,0.5351162420003469,0.6070424750532204,1.009768071961189,0.5884683461279463,0.5405063824737953,0.8317619194304801,1.223703270279597,0.1072995113712108,0.5477470269635157,0.3996625596187728,958.1684981684982,783.6996336996338,378.7545787545787,817.5457875457876,741.3919413919414,-0.266296,0.113892,0.965149,4.000092,-5.263672,-1.614990,1,2,1,2,2,40.000000
2021-11-11 01:08:12.090,,,,,,,,,,,,,,,,,,,,,,,,,,,,,,,,,,,,,,/muse/elements/blink
2021-11-11 01:08:12.632,1.13041100640814,0.967184297781628,0.7884405901734071,1.243654651257116,1.167468734962698,0.6207072331105383,0.7470639884812434,0.6448444566289,0.7135115034047195,0.5329500321427042,0.5351162420003469,0.6070424750532204,1.009768071961189,0.5387287832220491,0.5405063824737953,0.8317619194304801,1.223703270279597,-0.1129665270678029,0.5477470269635157,0.3996625596187728,1326.849816849817,758.7179487179487,217.985347985348,913.8461538461539,460.5494505494506,-0.148560,0.112000,0.997803,-11.566620,-25.421143,48.935699,1,2,1,2,2,45.000000
2021-11-11 01:08:12.692,,,,,,,,,,,,,,,,,,,,,,,,,,,,,,,,,,,,,,/muse/elements/blink
2021-11-11 01:08:13.627,1.13041100640814,1.448405434763791,0.7884405901734071,1.243654651257116,1.167468734962698,0.8573177287982826,0.7470639884812434,0.6448444566289,0.7135115034047195,0.5534955860398114,0.5351162420003469,0.6070424750532204,1.009768071961189,0.529322132545645,0.5405063824737953,0.8317619194304801,1.223703270279597,-0.01165819460763886,0.5477470269635157,0.3996625596187728,695.4578754578755,796.1904761904763,429.9267399267399,799.8168498168499,879.5970695970697,-0.192017,0.007874,0.986511,7.678680,-14.101257,-6.826324,1,2,1,2,2,45.000000
2021-11-11 01:08:13.913,,,,,,,,,,,,,,,,,,,,,,,,,,,,,,,,,,,,,,/muse/elements/blink
2021-11-11 01:08:14.626,1.13041100640814,1.666377335552217,0.7884405901734071,1.243654651257116,1.167468734962698,0.7511071795768215,0.7470639884812434,0.6448444566289,0.7135115034047195,0.3994171425689091,0.5351162420003469,0.6070424750532204,1.009768071961189,0.4747036053819127,0.5405063824737953,0.8317619194304801,1.223703270279597,0.07302451059236213,0.5477470269635157,0.3996625596187728,1039.96336996337,784.9084249084249,618.4981684981685,820.3663003663004,1009.340659340659,-0.090271,0.164612,0.985657,15.200348,-0.882263,-12.792816,1,2,1,2,2,45.000000
2021-11-11 01:08:15.460,,,,,,,,,,,,,,,,,,,,,,,,,,,,,,,,,,,,,,/muse/elements/blink
2021-11-11 01:08:15.635,1.13041100640814,1.382215382256017,0.7884405901734071,1.243654651257116,1.167468734962698,0.4809698550213526,0.7470639884812434,0.6448444566289,0.7135115034047195,0.3065446263283956,0.5351162420003469,0.6070424750532204,1.009768071961189,0.6138973796662586,0.5405063824737953,0.8317619194304801,1.223703270279597,0.0234708172148873,0.5477470269635157,0.3996625596187728,1234.981684981685,805.8608058608058,577.8021978021978,829.6336996336996,727.2893772893773,-0.177002,0.087158,0.983276,-0.097198,1.906586,36.800842,1,2,1,2,2,45.000000
2021-11-11 01:08:16.627,1.13041100640814,1.231114271671607,0.7884405901734071,1.243654651257116,1.167468734962698,0.4349499970217701,0.7470639884812434,0.6448444566289,0.7135115034047195,0.6271445984764646,0.5351162420003469,0.6070424750532204,1.009768071961189,0.527980260747556,0.5405063824737953,0.8317619194304801,1.223703270279597,0.1597298713859097,0.5477470269635157,0.3996625596187728,1209.59706959707,806.2637362637363,413.4065934065934,837.2893772893773,860.6593406593407,-0.156738,0.059448,0.944580,-13.316193,4.538422,10.123596,1,2,1,2,2,45.000000
2021-11-11 01:08:16.862,,,,,,,,,,,,,,,,,,,,,,,,,,,,,,,,,,,,,,/muse/elements/blink
2021-11-11 01:08:17.277,,,,,,,,,,,,,,,,,,,,,,,,,,,,,,,,,,,,,,/muse/elements/blink
2021-11-11 01:08:17.632,1.13041100640814,0.8816091504511244,0.7884405901734071,1.243654651257116,1.167468734962698,0.3930129876927365,0.7470639884812434,0.6448444566289,0.7135115034047195,0.613269929207332,0.5351162420003469,0.6070424750532204,1.009768071961189,0.4527431431284694,0.5405063824737953,0.8317619194304801,1.223703270279597,-0.04034319264438439,0.5477470269635157,0.3996625596187728,1147.545787545788,799.8168498168499,257.0695970695971,831.6483516483516,945.2747252747253,-0.175720,0.003479,0.993958,4.456177,-3.544006,-3.476715,1,2,1,2,2,45.000000
2021-11-11 01:08:18.591,,,,,,,,,,,,,,,,,,,,,,,,,,,,,,,,,,,,,,/muse/elements/blink
2021-11-11 01:08:18.626,1.13041100640814,0.7759783900853898,0.7884405901734071,1.243654651257116,1.167468734962698,0.2212567042361643,0.7470639884812434,0.6448444566289,0.7135115034047195,0.1364764161001518,0.5351162420003469,0.6070424750532204,1.009768071961189,0.4913904280798105,0.5405063824737953,0.8317619194304801,1.223703270279597,-0.2374401789535157,0.5477470269635157,0.3996625596187728,1143.516483516484,786.1172161172161,350.5494505494506,825.6043956043957,828.021978021978,-0.206909,-0.011841,0.979553,4.508514,-5.211334,-0.209351,1,2,1,2,2,45.000000
2021-11-11 01:08:19.627,1.13041100640814,0.7908330932411242,0.7884405901734071,1.250960352944494,1.167468734962698,0.2701839953265557,0.7470639884812434,0.9763160527025885,0.7135115034047195,0.3605632629920308,0.5351162420003469,1.022940829432262,1.009768071961189,0.5522671964667307,0.5405063824737953,0.9451652377696543,1.223703270279597,-0.09809710289443056,0.5477470269635157,0.5888310703521333,1235.787545787546,804.6520146520147,595.5311355311355,823.1868131868132,773.2234432234433,-0.208130,-0.002136,0.985962,5.532837,-2.781372,-0.934601,1,2,1,2,2,45.000000
2021-11-11 01:08:20.133,,,,,,,,,,,,,,,,,,,,,,,,,,,,,,,,,,,,,,/muse/elements/blink
2021-11-11 01:08:20.613,,,,,,,,,,,,,,,,,,,,,,,,,,,,,,,,,,,,,,/muse/elements/blink
2021-11-11 01:08:20.626,1.13041100640814,1.21280515239722,0.7884405901734071,1.138501688000531,1.167468734962698,0.6154833207252346,0.7470639884812434,0.822382550132654,0.7135115034047195,0.5912099275349039,0.5351162420003469,0.9059550574800986,1.009768071961189,0.4951514613867875,0.5405063824737953,1.01472063888202,1.223703270279597,-0.01456737109795666,0.5477470269635157,0.727197942629925,1221.282051282051,807.0695970695971,744.6153846153846,792.5641025641025,781.2820512820513,-0.304016,0.021484,0.921631,0.687866,-23.948212,-0.560760,1,1,1,2,1,45.000000
2021-11-11 01:08:21.627,,,,,,,,,,,,,,,,,,,,,,,,,,,,,,,,,,,,,,/muse/elements/blink
2021-11-11 01:08:21.639,1.13041100640814,1.262238634313702,0.7884405901734071,1.152394521776256,1.167468734962698,0.6131857115576975,0.7470639884812434,0.7325850001112314,0.7135115034047195,0.577982789989095,0.5351162420003469,0.8818290458552149,1.009768071961189,0.4691385251362936,0.5405063824737953,1.010638283643858,1.223703270279597,0.1415991165220416,0.5477470269635157,0.752623154728662,1279.70695970696,796.996336996337,487.948717948718,807.0695970695971,859.047619047619,-0.155029,-0.003113,1.005554,7.222595,-1.772003,-5.540314,1,1,1,2,1,45.000000
2021-11-11 01:08:22.586,,,,,,,,,,,,,,,,,,,,,,,,,,,,,,,,,,,,,,/muse/elements/blink
2021-11-11 01:08:22.626,1.13041100640814,1.294077343655816,0.7884405901734071,1.152394521776256,1.167468734962698,0.8574388363672498,0.7470639884812434,0.7325850001112314,0.7135115034047195,0.5584066949813129,0.5351162420003469,0.8818290458552149,1.009768071961189,0.478913924842209,0.5405063824737953,1.010638283643858,1.223703270279597,0.2156431789539801,0.5477470269635157,0.752623154728662,1385.677655677656,809.0842490842491,1040.769230769231,811.5018315018315,779.6703296703297,-0.203735,0.082214,1.032898,46.034698,49.638519,-8.037567,1,1,1,2,1,45.000000
2021-11-11 01:08:22.951,,,,,,,,,,,,,,,,,,,,,,,,,,,,,,,,,,,,,,/muse/elements/blink
2021-11-11 01:08:23.547,,,,,,,,,,,,,,,,,,,,,,,,,,,,,,,,,,,,,,/muse/elements/blink
2021-11-11 01:08:23.626,1.13041100640814,1.621701867089723,0.7884405901734071,1.152394521776256,1.167468734962698,0.8906682492609239,0.7470639884812434,0.7325850001112314,0.7135115034047195,0.872027748618875,0.5351162420003469,0.8818290458552149,1.009768071961189,0.5709972829840951,0.5405063824737953,1.010638283643858,1.223703270279597,0.457774061941263,0.5477470269635157,0.752623154728662,1228.534798534798,793.3699633699634,1624.212454212454,861.0622710622711,1088.315018315018,-0.216614,0.182678,0.968994,-17.383575,-10.415192,-43.238373,1,2,1,2,2,45.000000
2021-11-11 01:08:23.891,,,,,,,,,,,,,,,,,,,,,,,,,,,,,,,,,,,,,,/muse/elements/blink
2021-11-11 01:08:24.415,,,,,,,,,,,,,,,,,,,,,,,,,,,,,,,,,,,,,,/muse/elements/jaw_clench
2021-11-11 01:08:24.508,,,,,,,,,,,,,,,,,,,,,,,,,,,,,,,,,,,,,,/muse/elements/blink
2021-11-11 01:08:24.636,1.13041100640814,1.963766712681424,0.7884405901734071,1.152394521776256,1.167468734962698,1.152965776468093,0.7470639884812434,0.7325850001112314,0.7135115034047195,0.9121158144912036,0.5351162420003469,0.8818290458552149,1.009768071961189,0.638233845149467,0.5405063824737953,1.010638283643858,1.223703270279597,0.4310148739069579,0.5477470269635157,0.752623154728662,1018.608058608059,24.17582417582418,308.6446886446886,794.981684981685,802.6373626373627,-0.256592,0.285400,0.981445,-36.053162,13.622742,-23.028564,1,2,1,4,2,45.000000
2021-11-11 01:08:24.879,,,,,,,,,,,,,,,,,,,,,,,,,,,,,,,,,,,,,,/muse/elements/blink
2021-11-11 01:08:25.315,,,,,,,,,,,,,,,,,,,,,,,,,,,,,,,,,,,,,,/muse/elements/blink
2021-11-11 01:08:25.629,1.13041100640814,1.981607133414289,0.7884405901734071,1.152394521776256,1.167468734962698,0.970560661759547,0.7470639884812434,0.7325850001112314,0.7135115034047195,0.5933874542449707,0.5351162420003469,0.8818290458552149,1.009768071961189,0.6608625763324374,0.5405063824737953,1.010638283643858,1.223703270279597,0.3127841775919251,0.5477470269635157,0.752623154728662,1092.344322344322,690.6227106227107,3.626373626373626,823.992673992674,857.032967032967,-0.318909,0.219543,0.944092,-3.985138,-3.170166,-39.858856,1,2,4,2,2,45.000000
2021-11-11 01:08:26.327,,,,,,,,,,,,,,,,,,,,,,,,,,,,,,,,,,,,,,/muse/elements/blink
2021-11-11 01:08:26.626,1.13041100640814,1.981607133414289,0.7884405901734071,1.152394521776256,1.167468734962698,0.970560661759547,0.7470639884812434,0.7325850001112314,0.7135115034047195,0.5933874542449707,0.5351162420003469,0.8818290458552149,1.009768071961189,0.6608625763324374,0.5405063824737953,1.010638283643858,1.223703270279597,0.3127841775919251,0.5477470269635157,0.752623154728662,1074.212454212454,738.1684981684982,311.0622710622711,823.992673992674,875.9706959706959,-0.396606,0.091675,0.941162,-13.465729,-8.471222,-28.583832,1,2,2,2,2,45.000000
2021-11-11 01:08:27.117,,,,,,,,,,,,,,,,,,,,,,,,,,,,,,,,,,,,,,/muse/elements/blink
2021-11-11 01:08:27.623,,,,,,,,,,,,,,,,,,,,,,,,,,,,,,,,,,,,,,/muse/elements/blink
2021-11-11 01:08:27.632,1.13041100640814,1.981607133414289,0.7884405901734071,1.152394521776256,1.167468734962698,0.970560661759547,0.7470639884812434,0.7325850001112314,0.7135115034047195,0.5933874542449707,0.5351162420003469,0.8818290458552149,1.009768071961189,0.6608625763324374,0.5405063824737953,1.010638283643858,1.223703270279597,0.3127841775919251,0.5477470269635157,0.752623154728662,932.3809523809524,678.9377289377289,70.10989010989012,765.5677655677656,591.0989010989011,-0.352600,0.218323,0.841431,-23.783722,-1.188812,76.113892,1,2,4,2,2,45.000000
2021-11-11 01:08:27.829,,,,,,,,,,,,,,,,,,,,,,,,,,,,,,,,,,,,,,/muse/elements/blink
2021-11-11 01:08:28.431,,,,,,,,,,,,,,,,,,,,,,,,,,,,,,,,,,,,,,/muse/elements/blink
2021-11-11 01:08:28.626,1.13041100640814,1.981607133414289,0.7884405901734071,1.152394521776256,1.167468734962698,0.970560661759547,0.7470639884812434,0.7325850001112314,0.7135115034047195,0.5933874542449707,0.5351162420003469,0.8818290458552149,1.009768071961189,0.6608625763324374,0.5405063824737953,1.010638283643858,1.223703270279597,0.3127841775919251,0.5477470269635157,0.752623154728662,1081.062271062271,921.0989010989011,1623.809523809524,756.3003663003664,832.8571428571429,-0.228943,-0.105713,0.888855,-14.946136,3.521576,-85.041199,1,2,4,2,2,45.000000
2021-11-11 01:08:28.869,,,,,,,,,,,,,,,,,,,,,,,,,,,,,,,,,,,,,,/muse/elements/blink
2021-11-11 01:08:29.380,,,,,,,,,,,,,,,,,,,,,,,,,,,,,,,,,,,,,,/muse/elements/blink
2021-11-11 01:08:29.626,1.13041100640814,1.981607133414289,0.7884405901734071,1.152394521776256,1.167468734962698,0.970560661759547,0.7470639884812434,0.7325850001112314,0.7135115034047195,0.5933874542449707,0.5351162420003469,0.8818290458552149,1.009768071961189,0.6608625763324374,0.5405063824737953,1.010638283643858,1.223703270279597,0.3127841775919251,0.5477470269635157,0.752623154728662,1043.589743589744,1072.197802197802,1623.809523809524,908.2051282051282,1045.201465201465,-0.493347,0.072388,0.830017,13.802185,24.665985,-8.545990,1,2,1,2,2,45.000000
2021-11-11 01:08:30.169,,,,,,,,,,,,,,,,,,,,,,,,,,,,,,,,,,,,,,/muse/elements/blink
2021-11-11 01:08:30.358,,,,,,,,,,,,,,,,,,,,,,,,,,,,,,,,,,,,,,/muse/elements/blink
2021-11-11 01:08:30.626,1.13041100640814,1.981607133414289,0.7884405901734071,1.152394521776256,1.167468734962698,0.970560661759547,0.7470639884812434,0.7325850001112314,0.7135115034047195,0.5933874542449707,0.5351162420003469,0.8818290458552149,1.009768071961189,0.6608625763324374,0.5405063824737953,1.010638283643858,1.223703270279597,0.3127841775919251,0.5477470269635157,0.752623154728662,0,0,1623.809523809524,427.5091575091575,850.989010989011,-0.389526,0.119324,0.849915,21.959381,-1.652374,-19.432220,1,2,4,4,2,45.000000
2021-11-11 01:08:30.777,,,,,,,,,,,,,,,,,,,,,,,,,,,,,,,,,,,,,,/muse/elements/blink
2021-11-11 01:08:31.191,,,,,,,,,,,,,,,,,,,,,,,,,,,,,,,,,,,,,,/muse/elements/blink
2021-11-11 01:08:31.493,,,,,,,,,,,,,,,,,,,,,,,,,,,,,,,,,,,,,,/muse/elements/blink
2021-11-11 01:08:31.626,1.13041100640814,1.981607133414289,0.7884405901734071,1.152394521776256,1.167468734962698,0.970560661759547,0.7470639884812434,0.7325850001112314,0.7135115034047195,0.5933874542449707,0.5351162420003469,0.8818290458552149,1.009768071961189,0.6608625763324374,0.5405063824737953,1.010638283643858,1.223703270279597,0.3127841775919251,0.5477470269635157,0.752623154728662,858.2417582417582,504.8717948717949,888.0586080586081,882.014652014652,938.021978021978,-0.326843,0.222717,0.867249,7.484283,0.224304,-14.078827,1,4,1,4,4,45.000000
2021-11-11 01:08:31.797,,,,,,,,,,,,,,,,,,,,,,,,,,,,,,,,,,,,,,/muse/elements/blink
2021-11-11 01:08:32.516,,,,,,,,,,,,,,,,,,,,,,,,,,,,,,,,,,,,,,/muse/elements/blink
2021-11-11 01:08:32.626,1.13041100640814,2.443231692322057,0.7884405901734071,1.152394521776256,1.167468734962698,0.951725591883669,0.7470639884812434,0.7325850001112314,0.7135115034047195,0.5434162170862112,0.5351162420003469,0.8818290458552149,1.009768071961189,0.8907285004490607,0.5405063824737953,1.010638283643858,1.223703270279597,0.3644221967164967,0.5477470269635157,0.752623154728662,1085.091575091575,621.3186813186813,660.4029304029305,697.8754578754579,127.3260073260073,-0.378906,0.143311,0.892517,-9.517975,-13.884430,54.401245,1,2,1,4,4,45.000000
2021-11-11 01:08:33.125,,,,,,,,,,,,,,,,,,,,,,,,,,,,,,,,,,,,,,/muse/elements/blink
2021-11-11 01:08:33.634,1.13041100640814,2.215938925570865,0.7884405901734071,1.152394521776256,1.167468734962698,1.001603824404308,0.7470639884812434,0.7325850001112314,0.7135115034047195,0.5130651085089891,0.5351162420003469,0.8818290458552149,1.009768071961189,0.8589707148253864,0.5405063824737953,1.010638283643858,1.223703270279597,0.359655902832911,0.5477470269635157,0.752623154728662,636.6300366300367,649.5238095238095,0,815.1282051282052,815.934065934066,-0.316956,0.188232,0.953918,11.880646,4.052429,-5.009460,1,2,1,4,2,45.000000
2021-11-11 01:08:34.630,1.13041100640814,0.9705705820688227,0.7884405901734071,1.152394521776256,1.167468734962698,0.4468185031892456,0.7470639884812434,0.7325850001112314,0.7135115034047195,0.4566499595871584,0.5351162420003469,0.8818290458552149,1.009768071961189,0.7005192551785276,0.5405063824737953,1.010638283643858,1.223703270279597,0.1749355096473103,0.5477470269635157,0.752623154728662,756.7032967032967,692.6373626373627,11.28205128205128,862.2710622710623,585.0549450549451,-0.332764,0.186951,0.914185,0.889740,-8.792725,-5.712280,1,2,1,1,2,45.000000
2021-11-11 01:08:34.765,,,,,,,,,,,,,,,,,,,,,,,,,,,,,,,,,,,,,,/muse/elements/blink
2021-11-11 01:08:35.626,1.13041100640814,1.083871243009919,0.7884405901734071,1.152394521776256,1.167468734962698,0.6540833797754132,0.7470639884812434,0.7325850001112314,0.7135115034047195,0.5948755510389236,0.5351162420003469,0.8818290458552149,1.009768071961189,0.5818313280726014,0.5405063824737953,1.010638283643858,1.223703270279597,0.07058902233566698,0.5477470269635157,0.752623154728662,778.8644688644689,689.8168498168499,27.8021978021978,784.5054945054945,737.7655677655678,-0.304443,0.147400,0.952087,6.467438,-5.256195,-3.394470,1,2,1,1,2,45.000000
2021-11-11 01:08:36.448,,,,,,,,,,,,,,,,,,,,,,,,,,,,,,,,,,,,,,/muse/elements/blink
2021-11-11 01:08:36.626,1.13041100640814,0.8394407829199522,0.7884405901734071,0.8411444954059385,1.167468734962698,0.4389606495496755,0.7470639884812434,0.3174351422542496,0.7135115034047195,0.5788177310143994,0.5351162420003469,0.4506792543662317,1.009768071961189,0.5260675377045331,0.5405063824737953,0.5180653743148121,1.223703270279597,0.2051427179716327,0.5477470269635157,0.4406216216672397,876.3736263736264,711.5750915750916,5.238095238095238,766.7765567765568,247.8021978021978,-0.223389,0.114807,0.897095,2.646790,8.882446,-22.019196,1,1,1,1,1,45.000000
2021-11-11 01:08:36.681,,,,,,,,,,,,,,,,,,,,,,,,,,,,,,,,,,,,,,/muse/elements/blink
2021-11-11 01:08:36.966,,,,,,,,,,,,,,,,,,,,,,,,,,,,,,,,,,,,,,/muse/elements/blink
2021-11-11 01:08:37.387,,,,,,,,,,,,,,,,,,,,,,,,,,,,,,,,,,,,,,/muse/elements/blink
2021-11-11 01:08:37.627,1.13041100640814,1.525575797711068,0.7884405901734071,0.8709041658997474,1.167468734962698,1.254433268304151,0.7470639884812434,0.1308535464697408,0.7135115034047195,0.9924734321472043,0.5351162420003469,0.1748146097915519,1.009768071961189,0.529303702986415,0.5405063824737953,0.5405626354586297,1.223703270279597,0.2201507413748559,0.5477470269635157,0.479608865550921,520.1831501831502,736.1538461538462,0,756.3003663003664,676.1172161172161,-0.238220,0.164795,0.941101,0.837402,-0.530853,8.231964,1,1,1,1,1,45.000000
2021-11-11 01:08:37.901,,,,,,,,,,,,,,,,,,,,,,,,,,,,,,,,,,,,,,/muse/elements/blink
2021-11-11 01:08:38.630,1.13041100640814,1.163673434944381,0.7884405901734071,0.8709041658997474,1.167468734962698,0.7230990548271693,0.7470639884812434,0.1308535464697408,0.7135115034047195,0.6394323963315168,0.5351162420003469,0.1748146097915519,1.009768071961189,0.6174416543908158,0.5405063824737953,0.5405626354586297,1.223703270279597,0.2771913234393928,0.5477470269635157,0.479608865550921,588.2783882783883,750.2564102564103,0,774.4322344322345,693.4432234432235,-0.304626,0.207947,0.934998,8.732910,-6.504822,1.256104,1,1,1,1,1,45.000000
2021-11-11 01:08:39.408,,,,,,,,,,,,,,,,,,,,,,,,,,,,,,,,,,,,,,/muse/elements/blink
2021-11-11 01:08:39.626,1.126742201222742,0.7374117503473742,0.7884405901734071,1.222318713638739,0.4220943743905174,0.3300589538954705,0.7470639884812434,0.9040182437991172,0.7482999783979003,0.2167038658927296,0.5351162420003469,0.9691820465958609,1.022456391089356,0.6180509630748101,0.5405063824737953,0.7429647981848226,1.241929423994067,0.2790352319014096,0.5477470269635157,0.5364840729142767,656.3736263736264,753.8827838827839,0,749.4505494505495,724.8717948717949,-0.286987,0.194702,0.952515,1.943970,-2.362671,-4.927216,1,1,1,1,1,45.000000
2021-11-11 01:08:39.912,,,,,,,,,,,,,,,,,,,,,,,,,,,,,,,,,,,,,,/muse/elements/blink
2021-11-11 01:08:40.539,,,,,,,,,,,,,,,,,,,,,,,,,,,,,,,,,,,,,,/muse/elements/blink
2021-11-11 01:08:40.626,1.126742201222742,1.217260569181455,0.7884405901734071,1.614753031109291,0.4220943743905174,0.5262188555508366,0.7470639884812434,1.381587929640897,0.7482999783979003,0.2755317416587079,0.5351162420003469,1.017788915678177,1.022456391089356,0.5173500713377026,0.5405063824737953,0.8108107767186314,1.241929423994067,0.3837124157189711,0.5477470269635157,0.5334556604998635,462.967032967033,983.5531135531136,0,756.3003663003664,639.8534798534798,-0.326111,0.099426,0.914368,-20.164948,-3.581390,-27.843628,1,1,1,1,1,45.000000
2021-11-11 01:08:41.232,,,,,,,,,,,,,,,,,,,,,,,,,,,,,,,,,,,,,,/muse/elements/blink
2021-11-11 01:08:41.626,1.126742201222742,1.533511175681501,0.7884405901734071,1.763395283903095,0.4220943743905174,0.7279325873603899,0.7470639884812434,1.529490506604205,0.7482999783979003,0.2463042352249131,0.5351162420003469,1.017788915678177,1.022456391089356,0.5993697038272843,0.5405063824737953,0.8746884935684155,1.241929423994067,0.2453389120396009,0.5477470269635157,0.5573336087041928,406.5567765567766,990.8058608058608,0,767.985347985348,1041.172161172161,-0.542236,0.231201,0.888489,8.388977,15.761108,-14.250793,1,1,1,4,1,45.000000
2021-11-11 01:08:42.447,,,,,,,,,,,,,,,,,,,,,,,,,,,,,,,,,,,,,,/muse/elements/blink
2021-11-11 01:08:42.626,1.126742201222742,1.648130760601289,0.7884405901734071,1.763395283903095,0.4220943743905174,0.7208350758958652,0.7470639884812434,1.529490506604205,0.7482999783979003,0.189466114329704,0.5351162420003469,1.017788915678177,1.022456391089356,0.6239086757199093,0.5405063824737953,0.8746884935684155,1.241929423994067,0.2248253959350716,0.5477470269635157,0.5573336087041928,546.3736263736264,640.2564102564103,0,844.1391941391942,859.047619047619,-0.445923,0.275940,0.908875,-3.962708,6.370239,-51.941376,1,2,1,2,2,45.000000
2021-11-11 01:08:42.672,,,,,,,,,,,,,,,,,,,,,,,,,,,,,,,,,,,,,,/muse/elements/blink
2021-11-11 01:08:43.384,,,,,,,,,,,,,,,,,,,,,,,,,,,,,,,,,,,,,,/muse/elements/blink
2021-11-11 01:08:43.570,,,,,,,,,,,,,,,,,,,,,,,,,,,,,,,,,,,,,,/muse/elements/blink
2021-11-11 01:08:43.626,1.126742201222742,1.648130760601289,0.7884405901734071,1.763395283903095,0.4220943743905174,0.7208350758958652,0.7470639884812434,1.529490506604205,0.7482999783979003,0.189466114329704,0.5351162420003469,1.017788915678177,1.022456391089356,0.6239086757199093,0.5405063824737953,0.8746884935684155,1.241929423994067,0.2248253959350716,0.5477470269635157,0.5573336087041928,254.2490842490843,670.0732600732601,194.6153846153846,712.3809523809524,582.6373626373627,-0.345398,0.565552,0.802856,61.646271,15.050812,88.936615,1,2,1,2,2,45.000000
2021-11-11 01:08:43.752,,,,,,,,,,,,,,,,,,,,,,,,,,,,,,,,,,,,,,/muse/elements/blink
2021-11-11 01:08:44.628,1.126742201222742,1.648130760601289,0.7884405901734071,1.763395283903095,0.4220943743905174,0.7208350758958652,0.7470639884812434,1.529490506604205,0.7482999783979003,0.189466114329704,0.5351162420003469,1.017788915678177,1.022456391089356,0.6239086757199093,0.5405063824737953,0.8746884935684155,1.241929423994067,0.2248253959350716,0.5477470269635157,0.5573336087041928,415.018315018315,668.0586080586081,0,801.8315018315019,677.3260073260074,-0.365723,0.255554,0.952637,3.558960,-5.697327,30.243683,1,2,1,2,2,45.000000
2021-11-11 01:08:44.710,,,,,,,,,,,,,,,,,,,,,,,,,,,,,,,,,,,,,,/muse/elements/blink
2021-11-11 01:08:45.626,1.126742201222742,1.648130760601289,0.7884405901734071,1.763395283903095,0.4220943743905174,0.7208350758958652,0.7470639884812434,1.529490506604205,0.7482999783979003,0.189466114329704,0.5351162420003469,1.017788915678177,1.022456391089356,0.6239086757199093,0.5405063824737953,0.8746884935684155,1.241929423994067,0.2248253959350716,0.5477470269635157,0.5573336087041928,478.2783882783883,697.0695970695971,0,837.2893772893773,688.6080586080586,-0.390320,0.115295,0.932190,-26.213684,-19.641571,-63.792114,1,2,1,2,2,45.000000
2021-11-11 01:08:45.724,,,,,,,,,,,,,,,,,,,,,,,,,,,,,,,,,,,,,,/muse/elements/blink
2021-11-11 01:08:46.631,1.126742201222742,1.648130760601289,0.7884405901734071,1.763395283903095,0.4220943743905174,0.7208350758958652,0.7470639884812434,1.529490506604205,0.7482999783979003,0.189466114329704,0.5351162420003469,1.017788915678177,1.022456391089356,0.6239086757199093,0.5405063824737953,0.8746884935684155,1.241929423994067,0.2248253959350716,0.5477470269635157,0.5573336087041928,550,705.934065934066,0,738.5714285714286,602.3809523809524,-0.335693,-0.059082,0.889526,-2.743988,-9.839478,-47.417908,1,2,1,2,2,45.000000
2021-11-11 01:08:47.628,1.126742201222742,1.720935052261078,0.7884405901734071,1.763395283903095,0.4220943743905174,0.9045386828872183,0.7470639884812434,1.529490506604205,0.7482999783979003,0.7706846456967986,0.5351162420003469,1.017788915678177,1.022456391089356,1.23906185402521,0.5405063824737953,0.8746884935684155,1.241929423994067,0.8383648924580632,0.5477470269635157,0.5573336087041928,445.6410256410256,749.8534798534798,59.63369963369964,762.3443223443223,819.1575091575091,-0.405762,0.148071,0.911499,-4.972076,-4.695435,-20.665894,1,2,1,2,2,45.000000
2021-11-11 01:08:48.634,1.126742201222742,2.015771843533723,0.7884405901734071,1.776889979274477,0.4220943743905174,1.149894289926715,0.7470639884812434,0.9529952957312218,0.7482999783979003,0.7832236146152454,0.5351162420003469,0.9587441463034094,1.022456391089356,1.055658587085645,0.5405063824737953,1.112601866726989,1.241929423994067,0.9097845940934269,0.5477470269635157,1.169450301872962,744.2124542124542,732.9304029304029,420.6593406593407,728.0952380952381,886.0439560439561,-0.259888,0.104919,0.952637,-5.622559,18.034058,-9.929199,1,1,1,2,1,45.000000
2021-11-11 01:08:48.877,,,,,,,,,,,,,,,,,,,,,,,,,,,,,,,,,,,,,,/muse/elements/blink
2021-11-11 01:08:49.631,1.126742201222742,2.041950921153255,0.7884405901734071,1.875148271811969,0.4220943743905174,1.154581331769771,0.7470639884812434,1.009068401162677,0.7482999783979003,0.7379551018794114,0.5351162420003469,0.799861254334061,1.022456391089356,1.019538478382211,0.5405063824737953,0.9935923175181021,1.241929423994067,0.9620765407520778,0.5477470269635157,1.123219816465035,620.9157509157509,804.2490842490843,133.7728937728938,829.2307692307693,752.2710622710623,-0.316650,0.179382,1.003723,-1.338348,23.185577,-7.798309,1,1,1,2,1,45.000000
2021-11-11 01:08:50.626,1.126742201222742,2.041950921153255,0.7884405901734071,1.918348940743438,0.4220943743905174,1.154581331769771,0.7470639884812434,0.9596817931290184,0.7482999783979003,0.7379551018794114,0.5351162420003469,0.7772243565827226,1.022456391089356,1.019538478382211,0.5405063824737953,0.9716678441569139,1.241929423994067,0.9620765407520778,0.5477470269635157,1.054636192022188,556.8498168498169,764.3589743589744,1570.21978021978,711.5750915750916,899.7435897435897,-0.457275,0.068848,0.941345,5.465546,-1.652374,-103.127594,1,1,1,2,1,45.000000
2021-11-11 01:08:50.891,,,,,,,,,,,,,,,,,,,,,,,,,,,,,,,,,,,,,,/muse/elements/blink
2021-11-11 01:08:51.075,,,,,,,,,,,,,,,,,,,,,,,,,,,,,,,,,,,,,,/muse/elements/blink
2021-11-11 01:08:51.626,1.126742201222742,2.041950921153255,0.7884405901734071,1.918348940743438,0.4220943743905174,1.154581331769771,0.7470639884812434,0.9596817931290184,0.7482999783979003,0.7379551018794114,0.5351162420003469,0.7772243565827226,1.022456391089356,1.019538478382211,0.5405063824737953,0.9716678441569139,1.241929423994067,0.9620765407520778,0.5477470269635157,1.054636192022188,678.5347985347986,686.996336996337,2.014652014652015,716.007326007326,642.2710622710623,-0.194519,-0.041016,0.982849,18.871460,-0.448608,10.803986,1,2,1,2,2,45.000000
2021-11-11 01:08:51.925,,,,,,,,,,,,,,,,,,,,,,,,,,,,,,,,,,,,,,/muse/elements/blink
2021-11-11 01:08:52.524,,,,,,,,,,,,,,,,,,,,,,,,,,,,,,,,,,,,,,/muse/elements/blink
2021-11-11 01:08:52.625,1.126742201222742,2.041950921153255,0.7884405901734071,1.918348940743438,0.4220943743905174,1.154581331769771,0.7470639884812434,0.9596817931290184,0.7482999783979003,0.7379551018794114,0.5351162420003469,0.7772243565827226,1.022456391089356,1.019538478382211,0.5405063824737953,0.9716678441569139,1.241929423994067,0.9620765407520778,0.5477470269635157,1.054636192022188,905.7875457875458,555.6410256410256,1647.582417582418,795.7875457875458,710.3663003663004,-0.305298,0.164001,0.898682,-2.609406,-8.635712,22.378082,1,2,2,4,2,45.000000
2021-11-11 01:08:53.220,,,,,,,,,,,,,,,,,,,,,,,,,,,,,,,,,,,,,,/muse/elements/blink
2021-11-11 01:08:53.406,,,,,,,,,,,,,,,,,,,,,,,,,,,,,,,,,,,,,,/muse/elements/blink
2021-11-11 01:08:53.625,1.126742201222742,2.041950921153255,0.7884405901734071,1.918348940743438,0.4220943743905174,1.154581331769771,0.7470639884812434,0.9596817931290184,0.7482999783979003,0.7379551018794114,0.5351162420003469,0.7772243565827226,1.022456391089356,1.019538478382211,0.5405063824737953,0.9716678441569139,1.241929423994067,0.9620765407520778,0.5477470269635157,1.054636192022188,850.5860805860806,675.3113553113553,596.3369963369963,845.7509157509157,1242.637362637363,-0.419189,0.044922,0.957703,-9.562836,33.398895,20.366821,1,2,4,2,2,40.000000
2021-11-11 01:08:54.638,1.126742201222742,2.041950921153255,0.7884405901734071,1.918348940743438,0.4220943743905174,1.154581331769771,0.7470639884812434,0.9596817931290184,0.7482999783979003,0.7379551018794114,0.5351162420003469,0.7772243565827226,1.022456391089356,1.019538478382211,0.5405063824737953,0.9716678441569139,1.241929423994067,0.9620765407520778,0.5477470269635157,1.054636192022188,1008.534798534799,709.9633699633699,260.2930402930403,825.2014652014652,759.5238095238095,-0.088257,0.065735,1.007996,11.648865,-20.875244,13.981628,1,2,1,1,2,40.000000
2021-11-11 01:08:54.951,,,,,,,,,,,,,,,,,,,,,,,,,,,,,,,,,,,,,,/muse/elements/blink
2021-11-11 01:08:55.630,1.126742201222742,2.041950921153255,0.7884405901734071,1.918348940743438,0.4220943743905174,1.154581331769771,0.7470639884812434,0.9596817931290184,0.7482999783979003,0.7379551018794114,0.5351162420003469,0.7772243565827226,1.022456391089356,1.019538478382211,0.5405063824737953,0.9716678441569139,1.241929423994067,0.9620765407520778,0.5477470269635157,1.054636192022188,1101.611721611722,729.7069597069598,603.992673992674,812.7106227106227,904.5787545787546,-0.162354,0.220276,0.977478,1.457977,-5.622559,-5.473022,1,2,1,2,2,40.000000
2021-11-11 01:08:56.456,,,,,,,,,,,,,,,,,,,,,,,,,,,,,,,,,,,,,,/muse/elements/blink
2021-11-11 01:08:56.627,1.126742201222742,1.072498989953733,0.7884405901734071,0.7826803334058546,0.4220943743905174,0.2474155786636603,0.7470639884812434,0.4983319256633022,0.7482999783979003,0.5462983041082181,0.5351162420003469,1.197367511416584,1.022456391089356,0.5413456128278208,0.5405063824737953,1.193652444883642,1.241929423994067,0.4042633417181805,0.5477470269635157,1.119027345026931,1027.069597069597,598.7545787545788,799.0109890109891,794.981684981685,851.7948717948718,-0.211243,0.172424,0.972534,6.130981,-4.972076,4.463654,1,1,1,2,1,40.000000
2021-11-11 01:08:56.782,,,,,,,,,,,,,,,,,,,,,,,,,,,,,,,,,,,,,,/muse/elements/blink
2021-11-11 01:08:57.629,1.126742201222742,1.072498989953733,0.7884405901734071,0.7826803334058546,0.4220943743905174,0.2474155786636603,0.7470639884812434,0.4983319256633022,0.7482999783979003,0.5462983041082181,0.5351162420003469,1.197367511416584,1.022456391089356,0.5413456128278208,0.5405063824737953,1.193652444883642,1.241929423994067,0.4042633417181805,0.5477470269635157,1.119027345026931,1048.827838827839,599.1575091575091,0,762.3443223443223,962.1978021978023,-0.179443,0.105103,0.983704,-23.125763,-5.667419,-103.733215,1,1,4,2,1,40.000000
2021-11-11 01:08:57.667,,,,,,,,,,,,,,,,,,,,,,,,,,,,,,,,,,,,,,/muse/elements/blink
2021-11-11 01:08:58.525,,,,,,,,,,,,,,,,,,,,,,,,,,,,,,,,,,,,,,/muse/elements/blink
2021-11-11 01:08:58.618,,,,,,,,,,,,,,,,,,,,,,,,,,,,,,,,,,,,,,/muse/elements/jaw_clench
2021-11-11 01:08:58.627,1.126742201222742,1.072498989953733,0.7884405901734071,0.7826803334058546,0.4220943743905174,0.2474155786636603,0.7470639884812434,0.4983319256633022,0.7482999783979003,0.5462983041082181,0.5351162420003469,1.197367511416584,1.022456391089356,0.5413456128278208,0.5405063824737953,1.193652444883642,1.241929423994067,0.4042633417181805,0.5477470269635157,1.119027345026931,1055.677655677656,1571.428571428572,1624.212454212454,902.967032967033,1062.930402930403,-0.217102,0.079895,0.965698,-0.837402,22.983704,-17.802277,1,1,1,4,1,40.000000
2021-11-11 01:08:58.895,,,,,,,,,,,,,,,,,,,,,,,,,,,,,,,,,,,,,,/muse/elements/blink
2021-11-11 01:08:59.500,,,,,,,,,,,,,,,,,,,,,,,,,,,,,,,,,,,,,,/muse/elements/blink
2021-11-11 01:08:59.625,1.126742201222742,1.072498989953733,0.7884405901734071,0.7826803334058546,0.4220943743905174,0.2474155786636603,0.7470639884812434,0.4983319256633022,0.7482999783979003,0.5462983041082181,0.5351162420003469,1.197367511416584,1.022456391089356,0.5413456128278208,0.5405063824737953,1.193652444883642,1.241929423994067,0.4042633417181805,0.5477470269635157,1.119027345026931,1047.619047619048,734.1391941391942,1041.172161172161,830.0366300366301,1018.205128205128,-0.266968,0.071594,0.961121,2.998199,-11.805878,34.370880,1,2,1,4,2,40.000000
2021-11-11 01:08:59.937,,,,,,,,,,,,,,,,,,,,,,,,,,,,,,,,,,,,,,/muse/elements/blink
2021-11-11 01:09:00.625,1.126742201222742,1.072498989953733,0.7884405901734071,0.7826803334058546,0.4220943743905174,0.2474155786636603,0.7470639884812434,0.4983319256633022,0.7482999783979003,0.5462983041082181,0.5351162420003469,1.197367511416584,1.022456391089356,0.5413456128278208,0.5405063824737953,1.193652444883642,1.241929423994067,0.4042633417181805,0.5477470269635157,1.119027345026931,1002.087912087912,714.3956043956044,1033.113553113553,797.8021978021978,739.3772893772893,-0.329956,0.087402,0.972961,2.998199,5.824432,1.600037,1,2,1,4,2,40.000000
2021-11-11 01:09:01.625,1.126742201222742,1.128619095336909,0.7884405901734071,0.7826803334058546,0.4220943743905174,0.2555011158980893,0.7470639884812434,0.4983319256633022,0.7482999783979003,0.005013964802664017,0.5351162420003469,1.197367511416584,1.022456391089356,0.6452476177807641,0.5405063824737953,1.193652444883642,1.241929423994067,0.4701662306370729,0.5477470269635157,1.119027345026931,1037.545787545788,716.4102564102565,588.2783882783883,929.1575091575091,792.5641025641025,-0.291077,0.115234,0.974365,3.304749,-1.532745,19.409790,1,2,1,2,2,40.000000
2021-11-11 01:09:01.674,,,,,,,,,,,,,,,,,,,,,,,,,,,,,,,,,,,,,,/muse/elements/blink
2021-11-11 01:09:01.953,,,,,,,,,,,,,,,,,,,,,,,,,,,,,,,,,,,,,,/muse/elements/blink
2021-11-11 01:09:02.370,,,,,,,,,,,,,,,,,,,,,,,,,,,,,,,,,,,,,,/muse/elements/blink
2021-11-11 01:09:02.625,1.126742201222742,1.343026587290545,0.7884405901734071,0.7826803334058546,0.4220943743905174,0.8393914147218273,0.7470639884812434,0.4983319256633022,0.7482999783979003,0.4779297027866456,0.5351162420003469,1.197367511416584,1.022456391089356,0.6313015109109323,0.5405063824737953,1.193652444883642,1.241929423994067,0.3852936247439904,0.5477470269635157,1.119027345026931,1089.120879120879,735.3479853479854,1639.120879120879,758.3150183150184,835.2747252747253,-0.304443,0.169250,0.963562,-13.749847,-26.325836,11.050720,1,2,1,2,2,40.000000
2021-11-11 01:09:02.880,,,,,,,,,,,,,,,,,,,,,,,,,,,,,,,,,,,,,,/muse/elements/blink
2021-11-11 01:09:03.634,1.126742201222742,1.22393853633321,0.7884405901734071,0.7826803334058546,0.4220943743905174,0.6472384963299126,0.7470639884812434,0.4983319256633022,0.7482999783979003,0.3219081012986115,0.5351162420003469,1.197367511416584,1.022456391089356,0.5984125937082352,0.5405063824737953,1.193652444883642,1.241929423994067,0.3180445364453031,0.5477470269635157,1.119027345026931,1148.754578754579,769.5970695970697,1585.531135531136,801.4285714285714,725.2747252747253,-0.163940,0.189758,0.973877,2.497253,-9.517975,-2.923431,1,2,1,4,2,40.000000
2021-11-11 01:09:04.462,,,,,,,,,,,,,,,,,,,,,,,,,,,,,,,,,,,,,,/muse/elements/blink
2021-11-11 01:09:04.630,1.126742201222742,0.7852737475348313,0.7884405901734071,0.7826803334058546,0.4220943743905174,0.140179002523602,0.7470639884812434,0.4983319256633022,0.7482999783979003,0.226224526889843,0.5351162420003469,1.197367511416584,1.022456391089356,0.4502828879653913,0.5405063824737953,1.193652444883642,1.241929423994067,0.2054581885423986,0.5477470269635157,1.119027345026931,1252.307692307692,788.1318681318681,1109.267399267399,826.8131868131868,707.1428571428571,-0.196289,0.279236,0.906555,19.140625,12.284393,9.525452,1,2,1,4,2,45.000000
2021-11-11 01:09:05.508,,,,,,,,,,,,,,,,,,,,,,,,,,,,,,,,,,,,,,/muse/elements/blink
2021-11-11 01:09:05.624,1.126742201222742,1.107199119988664,0.7884405901734071,0.7826803334058546,0.4220943743905174,0.1808239553147936,0.7470639884812434,0.4983319256633022,0.7482999783979003,0.4264255506288557,0.5351162420003469,1.197367511416584,1.022456391089356,0.5448315552845083,0.5405063824737953,1.193652444883642,1.241929423994067,0.2169209080554297,0.5477470269635157,1.119027345026931,897.3260073260074,738.974358974359,124.9084249084249,848.1684981684982,1203.956043956044,-0.125977,0.312622,1.004761,10.691833,-14.557343,-244.985046,1,2,1,4,2,45.000000
2021-11-11 01:09:06.021,,,,,,,,,,,,,,,,,,,,,,,,,,,,,,,,,,,,,,/muse/elements/blink
2021-11-11 01:09:06.634,1.126742201222742,1.338023155028899,0.7884405901734071,0.7826803334058546,0.4220943743905174,0.7065580375923645,0.7470639884812434,0.4983319256633022,0.7482999783979003,0.175264351314367,0.5351162420003469,1.197367511416584,1.022456391089356,0.6438330709372441,0.5405063824737953,1.193652444883642,1.241929423994067,0.3930480899161297,0.5477470269635157,1.119027345026931,1025.054945054945,766.3736263736264,163.992673992674,794.981684981685,723.2600732600732,-0.163391,0.110107,0.949280,3.708496,-29.271698,3.386993,1,2,1,4,2,45.000000
2021-11-11 01:09:07.627,1.126742201222742,0.9951203313199041,0.7884405901734071,0.7826803334058546,0.4220943743905174,0.4936757982367305,0.7470639884812434,0.4983319256633022,0.7482999783979003,0.3050194073755154,0.5351162420003469,1.197367511416584,1.022456391089356,0.4463552812043995,0.5405063824737953,1.193652444883642,1.241929423994067,0.2764118311265993,0.5477470269635157,1.119027345026931,1023.040293040293,815.934065934066,428.3150183150183,721.6483516483516,926.7399267399268,-0.156738,0.170349,0.954163,12.359161,0.284119,-44.606628,1,2,1,2,2,45.000000
2021-11-11 01:09:07.845,,,,,,,,,,,,,,,,,,,,,,,,,,,,,,,,,,,,,,/muse/elements/blink
2021-11-11 01:09:08.031,,,,,,,,,,,,,,,,,,,,,,,,,,,,,,,,,,,,,,/muse/elements/blink
2021-11-11 01:09:08.625,1.126742201222742,0.9557507727534784,0.7884405901734071,0.7826803334058546,0.4220943743905174,0.7728539876777422,0.7470639884812434,0.4983319256633022,0.7482999783979003,0.5427839705341391,0.5351162420003469,1.197367511416584,1.022456391089356,0.4990902611225906,0.5405063824737953,1.193652444883642,1.241929423994067,0.4515167003476278,0.5477470269635157,1.119027345026931,1145.128205128205,798.6080586080586,406.959706959707,815.1282051282052,877.5824175824176,-0.192505,0.187195,0.965149,5.136566,-5.697327,-8.007660,1,2,1,2,2,45.000000
2021-11-11 01:09:09.068,,,,,,,,,,,,,,,,,,,,,,,,,,,,,,,,,,,,,,/muse/elements/blink
2021-11-11 01:09:09.349,,,,,,,,,,,,,,,,,,,,,,,,,,,,,,,,,,,,,,/muse/elements/blink
2021-11-11 01:09:09.624,1.126742201222742,1.162090762635601,0.7884405901734071,0.9302655026689955,0.4220943743905174,0.8136750252634898,0.7470639884812434,0.7389412455472288,0.7482999783979003,0.7367523914018015,0.5351162420003469,0.9153373691483361,1.022456391089356,0.4346923535635703,0.5405063824737953,1.088550169547543,1.241929423994067,0.378441480232319,0.5477470269635157,0.8476290349308179,1162.454212454212,819.96336996337,1623.809523809524,914.2490842490843,859.047619047619,-0.413818,0.058716,0.889343,-2.130890,-34.101715,-2.325287,1,1,1,2,1,45.000000
2021-11-11 01:09:09.672,,,,,,,,,,,,,,,,,,,,,,,,,,,,,,,,,,,,,,/muse/elements/blink
2021-11-11 01:09:10.577,,,,,,,,,,,,,,,,,,,,,,,,,,,,,,,,,,,,,,/muse/elements/blink
2021-11-11 01:09:10.633,1.126742201222742,1.353947384314986,0.7884405901734071,0.9302655026689955,0.4220943743905174,0.7122703382030146,0.7470639884812434,0.7389412455472288,0.7482999783979003,0.6570302421440722,0.5351162420003469,0.9153373691483361,1.022456391089356,0.4863141649321275,0.5405063824737953,1.088550169547543,1.241929423994067,0.3987706507802465,0.5477470269635157,0.8476290349308179,0,1623.809523809524,1623.809523809524,0,1536.373626373626,0.041687,0.426880,0.914246,81.489716,-101.953735,-69.063263,1,2,1,4,2,45.000000
2021-11-11 01:09:10.805,,,,,,,,,,,,,,,,,,,,,,,,,,,,,,,,,,,,,,/muse/elements/blink
2021-11-11 01:09:11.625,1.126742201222742,1.125811537458563,0.7884405901734071,0.9302655026689955,0.4220943743905174,0.1505178781574179,0.7470639884812434,0.7389412455472288,0.7482999783979003,0.4541657348461211,0.5351162420003469,0.9153373691483361,1.022456391089356,0.6220640535385051,0.5405063824737953,1.088550169547543,1.241929423994067,0.5085090773205397,0.5477470269635157,0.8476290349308179,0,1000.47619047619,1623.809523809524,1550.476190476191,1623.406593406593,0.233826,0.348572,0.864075,3.072968,-1.196289,12.957306,1,4,4,4,2,45.000000
2021-11-11 01:09:11.796,,,,,,,,,,,,,,,,,,,,,,,,,,,,,,,,,,,,,,/muse/elements/blink
2021-11-11 01:09:12.119,,,,,,,,,,,,,,,,,,,,,,,,,,,,,,,,,,,,,,/muse/elements/blink
2021-11-11 01:09:12.304,,,,,,,,,,,,,,,,,,,,,,,,,,,,,,,,,,,,,,/muse/elements/blink
2021-11-11 01:09:12.625,1.126742201222742,1.125811537458563,0.7884405901734071,0.9302655026689955,0.4220943743905174,0.1505178781574179,0.7470639884812434,0.7389412455472288,0.7482999783979003,0.4541657348461211,0.5351162420003469,0.9153373691483361,1.022456391089356,0.6220640535385051,0.5405063824737953,1.088550169547543,1.241929423994067,0.5085090773205397,0.5477470269635157,0.8476290349308179,1623.406593406593,654.3589743589744,1599.6336996337,659.1941391941392,1578.681318681319,0.035828,0.300110,1.017334,-21.615448,55.440521,-9.495544,1,4,2,4,4,45.000000
2021-11-11 01:09:12.630,,,,,,,,,,,,,,,,,,,,,,,,,,,,,,,,,,,,,,/muse/elements/blink
2021-11-11 01:09:12.816,,,,,,,,,,,,,,,,,,,,,,,,,,,,,,,,,,,,,,/muse/elements/blink
2021-11-11 01:09:12.910,,,,,,,,,,,,,,,,,,,,,,,,,,,,,,,,,,,,,,/muse/elements/jaw_clench
2021-11-11 01:09:13.002,,,,,,,,,,,,,,,,,,,,,,,,,,,,,,,,,,,,,,/muse/elements/blink
2021-11-11 01:09:13.441,,,,,,,,,,,,,,,,,,,,,,,,,,,,,,,,,,,,,,/muse/elements/blink
2021-11-11 01:09:13.625,1.126742201222742,1.125811537458563,0.7884405901734071,0.9302655026689955,0.4220943743905174,0.1505178781574179,0.7470639884812434,0.7389412455472288,0.7482999783979003,0.4541657348461211,0.5351162420003469,0.9153373691483361,1.022456391089356,0.6220640535385051,0.5405063824737953,1.088550169547543,1.241929423994067,0.5085090773205397,0.5477470269635157,0.8476290349308179,0,645.8974358974359,1623.809523809524,1169.304029304029,1080.25641025641,-0.234009,0.146729,0.908752,8.665619,-18.490143,-7.035675,1,4,1,4,4,45.000000
2021-11-11 01:09:13.838,,,,,,,,,,,,,,,,,,,,,,,,,,,,,,,,,,,,,,/muse/elements/blink
2021-11-11 01:09:13.838,,,,,,,,,,,,,,,,,,,,,,,,,,,,,,,,,,,,,,/muse/elements/jaw_clench
2021-11-11 01:09:14.140,,,,,,,,,,,,,,,,,,,,,,,,,,,,,,,,,,,,,,/muse/elements/blink
2021-11-11 01:09:14.369,,,,,,,,,,,,,,,,,,,,,,,,,,,,,,,,,,,,,,/muse/elements/blink
2021-11-11 01:09:14.625,1.126742201222742,1.894453138401815,0.7884405901734071,0.9302655026689955,0.4220943743905174,1.364096265087603,0.7470639884812434,0.7389412455472288,0.7482999783979003,0.6741084660570151,0.5351162420003469,0.9153373691483361,1.022456391089356,0.5142719781524401,0.5405063824737953,1.088550169547543,1.241929423994067,0.3378547913072806,0.5477470269635157,0.8476290349308179,1623.406593406593,711.978021978022,1625.018315018315,606.007326007326,1500.915750915751,-0.275757,0.331787,0.964478,10.863800,-10.018921,-57.369537,1,4,1,4,4,45.000000
2021-11-11 01:09:15.073,,,,,,,,,,,,,,,,,,,,,,,,,,,,,,,,,,,,,,/muse/elements/jaw_clench
2021-11-11 01:09:15.167,,,,,,,,,,,,,,,,,,,,,,,,,,,,,,,,,,,,,,/muse/elements/blink
2021-11-11 01:09:15.625,1.126742201222742,1.651559614602108,0.7884405901734071,0.9302655026689955,0.4220943743905174,0.9985596727090345,0.7470639884812434,0.7389412455472288,0.7482999783979003,0.7376233944357924,0.5351162420003469,0.9153373691483361,1.022456391089356,0.4954123034345876,0.5405063824737953,1.088550169547543,1.241929423994067,0.3276531276517559,0.5477470269635157,0.8476290349308179,1560.952380952381,723.6630036630037,67.69230769230769,1336.117216117216,1194.285714285714,-0.097656,0.135315,0.987122,8.418884,-13.615265,-18.736877,1,4,1,2,4,45.000000
2021-11-11 01:09:16.047,,,,,,,,,,,,,,,,,,,,,,,,,,,,,,,,,,,,,,/muse/elements/blink
2021-11-11 01:09:16.301,,,,,,,,,,,,,,,,,,,,,,,,,,,,,,,,,,,,,,/muse/elements/blink
2021-11-11 01:09:16.625,1.126742201222742,1.129691941673931,0.7884405901734071,0.9302655026689955,0.4220943743905174,0.3603027687399665,0.7470639884812434,0.7389412455472288,0.7482999783979003,0.5619907019211666,0.5351162420003469,0.9153373691483361,1.022456391089356,0.4935433566727197,0.5405063824737953,1.088550169547543,1.241929423994067,0.3743295174541564,0.5477470269635157,0.8476290349308179,0.8058608058608059,1624.615384615385,1623.809523809524,1451.355311355311,1463.443223443224,-0.018127,0.278748,0.964600,52.696533,-0.179443,-178.665771,1,4,1,4,2,45.000000
2021-11-11 01:09:17.001,,,,,,,,,,,,,,,,,,,,,,,,,,,,,,,,,,,,,,/muse/elements/blink
2021-11-11 01:09:17.514,,,,,,,,,,,,,,,,,,,,,,,,,,,,,,,,,,,,,,/muse/elements/blink
2021-11-11 01:09:17.625,1.126742201222742,1.184266699091236,0.7884405901734071,0.9302655026689955,0.4220943743905174,0.3410586705740852,0.7470639884812434,0.7389412455472288,0.7482999783979003,0.3194667592943518,0.5351162420003469,0.9153373691483361,1.022456391089356,0.4202001926855293,0.5405063824737953,1.088550169547543,1.241929423994067,0.3965181878642725,0.5477470269635157,0.8476290349308179,901.3553113553114,797.8021978021978,45.12820512820513,736.5567765567765,676.9230769230769,-0.203125,0.234253,0.949646,7.043152,17.248993,12.800293,1,2,1,2,2,45.000000
2021-11-11 01:09:18.503,,,,,,,,,,,,,,,,,,,,,,,,,,,,,,,,,,,,,,/muse/elements/blink
2021-11-11 01:09:18.625,1.126742201222742,1.184266699091236,0.7884405901734071,0.9302655026689955,0.4220943743905174,0.3410586705740852,0.7470639884812434,0.7389412455472288,0.7482999783979003,0.3194667592943518,0.5351162420003469,0.9153373691483361,1.022456391089356,0.4202001926855293,0.5405063824737953,1.088550169547543,1.241929423994067,0.3965181878642725,0.5477470269635157,0.8476290349308179,1597.216117216117,753.4798534798535,44.32234432234432,619.7069597069598,337.6556776556777,-0.182068,0.201965,0.941711,-11.252594,6.445007,31.671753,1,4,1,4,2,45.000000
2021-11-11 01:09:18.823,,,,,,,,,,,,,,,,,,,,,,,,,,,,,,,,,,,,,,/muse/elements/blink
2021-11-11 01:09:19.103,,,,,,,,,,,,,,,,,,,,,,,,,,,,,,,,,,,,,,/muse/elements/blink
2021-11-11 01:09:19.424,,,,,,,,,,,,,,,,,,,,,,,,,,,,,,,,,,,,,,/muse/elements/blink
2021-11-11 01:09:19.625,1.126742201222742,1.184266699091236,0.7884405901734071,0.9302655026689955,0.4220943743905174,0.3410586705740852,0.7470639884812434,0.7389412455472288,0.7482999783979003,0.3194667592943518,0.5351162420003469,0.9153373691483361,1.022456391089356,0.4202001926855293,0.5405063824737953,1.088550169547543,1.241929423994067,0.3965181878642725,0.5477470269635157,0.8476290349308179,91.06227106227107,645.8974358974359,20.95238095238095,340.0732600732601,0,-0.128967,0.448303,0.958435,-50.707703,17.548065,211.204834,1,4,1,4,2,45.000000
2021-11-11 01:09:19.707,,,,,,,,,,,,,,,,,,,,,,,,,,,,,,,,,,,,,,/muse/elements/blink
2021-11-11 01:09:20.214,,,,,,,,,,,,,,,,,,,,,,,,,,,,,,,,,,,,,,/muse/elements/blink
2021-11-11 01:09:20.625,1.126742201222742,1.184266699091236,0.7884405901734071,0.9302655026689955,0.4220943743905174,0.3410586705740852,0.7470639884812434,0.7389412455472288,0.7482999783979003,0.3194667592943518,0.5351162420003469,0.9153373691483361,1.022456391089356,0.4202001926855293,0.5405063824737953,1.088550169547543,1.241929423994067,0.3965181878642725,0.5477470269635157,0.8476290349308179,865.4945054945056,628.5714285714286,9.267399267399268,826.007326007326,812.7106227106227,-0.246033,0.101990,0.981079,-0.583191,0.665436,15.275116,1,2,2,4,2,45.000000
2021-11-11 01:09:20.652,,,,,,,,,,,,,,,,,,,,,,,,,,,,,,,,,,,,,,/muse/elements/blink
2021-11-11 01:09:21.069,,,,,,,,,,,,,,,,,,,,,,,,,,,,,,,,,,,,,,/muse/elements/blink
2021-11-11 01:09:21.348,,,,,,,,,,,,,,,,,,,,,,,,,,,,,,,,,,,,,,/muse/elements/blink
2021-11-11 01:09:21.625,1.126742201222742,1.184266699091236,0.7884405901734071,0.9302655026689955,0.4220943743905174,0.3410586705740852,0.7470639884812434,0.7389412455472288,0.7482999783979003,0.3194667592943518,0.5351162420003469,0.9153373691483361,1.022456391089356,0.4202001926855293,0.5405063824737953,1.088550169547543,1.241929423994067,0.3965181878642725,0.5477470269635157,0.8476290349308179,0,657.5824175824176,0,991.2087912087912,557.6556776556777,-0.688843,0.319397,0.658875,20.052795,-11.304932,29.353943,1,4,1,4,2,45.000000
2021-11-11 01:09:21.768,,,,,,,,,,,,,,,,,,,,,,,,,,,,,,,,,,,,,,/muse/elements/blink
2021-11-11 01:09:22.301,,,,,,,,,,,,,,,,,,,,,,,,,,,,,,,,,,,,,,/muse/elements/blink
2021-11-11 01:09:22.634,1.126742201222742,1.184266699091236,0.7884405901734071,0.9302655026689955,0.4220943743905174,0.3410586705740852,0.7470639884812434,0.7389412455472288,0.7482999783979003,0.3194667592943518,0.5351162420003469,0.9153373691483361,1.022456391089356,0.4202001926855293,0.5405063824737953,1.088550169547543,1.241929423994067,0.3965181878642725,0.5477470269635157,0.8476290349308179,1096.776556776557,731.7216117216118,0,468.6080586080586,869.92673992674,-0.083191,0.422180,0.901428,17.809753,-33.630676,-6.833801,1,4,1,4,4,45.000000
2021-11-11 01:09:22.670,,,,,,,,,,,,,,,,,,,,,,,,,,,,,,,,,,,,,,/muse/elements/blink
2021-11-11 01:09:22.994,,,,,,,,,,,,,,,,,,,,,,,,,,,,,,,,,,,,,,/muse/elements/blink
2021-11-11 01:09:23.624,1.126742201222742,1.227705601937038,0.7884405901734071,0.9302655026689955,0.4220943743905174,0.9007311259893778,0.7470639884812434,0.7389412455472288,0.7482999783979003,0.9589285460752613,0.5351162420003469,0.9153373691483361,1.022456391089356,0.2728422576536761,0.5405063824737953,1.088550169547543,1.241929423994067,0.2324093974285599,0.5477470269635157,0.8476290349308179,1623.406593406593,1623.809523809524,1623.809523809524,1623.809523809524,1623.003663003663,0.034851,0.635315,0.716309,-19.813538,54.326477,5.749664,1,4,1,4,4,45.000000
2021-11-11 01:09:24.492,,,,,,,,,,,,,,,,,,,,,,,,,,,,,,,,,,,,,,/muse/elements/blink
2021-11-11 01:09:24.624,1.126742201222742,1.227705601937038,0.7884405901734071,0.9302655026689955,0.4220943743905174,0.9007311259893778,0.7470639884812434,0.7389412455472288,0.7482999783979003,0.9589285460752613,0.5351162420003469,0.9153373691483361,1.022456391089356,0.2728422576536761,0.5405063824737953,1.088550169547543,1.241929423994067,0.2324093974285599,0.5477470269635157,0.8476290349308179,944.4688644688645,1623.809523809524,1623.809523809524,0,0,-0.175659,0.429260,0.891113,0.874786,8.777771,9.069366,1,4,4,4,4,45.000000
2021-11-11 01:09:24.723,,,,,,,,,,,,,,,,,,,,,,,,,,,,,,,,,,,,,,/muse/elements/blink
2021-11-11 01:09:25.007,,,,,,,,,,,,,,,,,,,,,,,,,,,,,,,,,,,,,,/muse/elements/blink
2021-11-11 01:09:25.195,,,,,,,,,,,,,,,,,,,,,,,,,,,,,,,,,,,,,,/muse/elements/blink
2021-11-11 01:09:25.623,1.126742201222742,1.227705601937038,0.7884405901734071,0.9302655026689955,0.4220943743905174,0.9007311259893778,0.7470639884812434,0.7389412455472288,0.7482999783979003,0.9589285460752613,0.5351162420003469,0.9153373691483361,1.022456391089356,0.2728422576536761,0.5405063824737953,1.088550169547543,1.241929423994067,0.2324093974285599,0.5477470269635157,0.8476290349308179,719.2307692307693,402.1245421245421,0,593.5164835164835,246.1904761904762,-0.178406,0.264282,0.936951,-3.297272,-2.923431,0.897217,1,2,2,4,4,45.000000
2021-11-11 01:09:25.726,,,,,,,,,,,,,,,,,,,,,,,,,,,,,,,,,,,,,,/muse/elements/blink
2021-11-11 01:09:25.937,,,,,,,,,,,,,,,,,,,,,,,,,,,,,,,,,,,,,,/muse/elements/blink
2021-11-11 01:09:26.337,,,,,,,,,,,,,,,,,,,,,,,,,,,,,,,,,,,,,,/muse/elements/blink
2021-11-11 01:09:26.624,1.126742201222742,1.227705601937038,0.7884405901734071,0.9302655026689955,0.4220943743905174,0.9007311259893778,0.7470639884812434,0.7389412455472288,0.7482999783979003,0.9589285460752613,0.5351162420003469,0.9153373691483361,1.022456391089356,0.2728422576536761,0.5405063824737953,1.088550169547543,1.241929423994067,0.2324093974285599,0.5477470269635157,0.8476290349308179,183.3333333333333,0,1623.809523809524,1623.809523809524,1623.406593406593,-0.336426,0.271729,0.949707,15.619049,17.002258,-29.144592,1,4,4,4,4,45.000000
2021-11-11 01:09:26.736,,,,,,,,,,,,,,,,,,,,,,,,,,,,,,,,,,,,,,/muse/elements/blink
2021-11-11 01:09:27.040,,,,,,,,,,,,,,,,,,,,,,,,,,,,,,,,,,,,,,/muse/elements/blink
2021-11-11 01:09:27.626,,,,,,,,,,,,,,,,,,,,,,,,,,,,,,,,,,,,,,/muse/elements/blink
2021-11-11 01:09:27.634,1.126742201222742,1.227705601937038,0.7884405901734071,0.9302655026689955,0.4220943743905174,0.9007311259893778,0.7470639884812434,0.7389412455472288,0.7482999783979003,0.9589285460752613,0.5351162420003469,0.9153373691483361,1.022456391089356,0.2728422576536761,0.5405063824737953,1.088550169547543,1.241929423994067,0.2324093974285599,0.5477470269635157,0.8476290349308179,44.32234432234432,877.1794871794872,0,1623.809523809524,0,-0.435486,0.251404,0.888367,-6.527252,-0.000000,15.409698,1,2,4,4,4,45.000000
2021-11-11 01:09:28.137,,,,,,,,,,,,,,,,,,,,,,,,,,,,,,,,,,,,,,/muse/elements/blink
2021-11-11 01:09:28.459,,,,,,,,,,,,,,,,,,,,,,,,,,,,,,,,,,,,,,/muse/elements/blink
2021-11-11 01:09:28.631,1.126742201222742,1.227705601937038,0.7884405901734071,0.9302655026689955,0.4220943743905174,0.9007311259893778,0.7470639884812434,0.7389412455472288,0.7482999783979003,0.9589285460752613,0.5351162420003469,0.9153373691483361,1.022456391089356,0.2728422576536761,0.5405063824737953,1.088550169547543,1.241929423994067,0.2324093974285599,0.5477470269635157,0.8476290349308179,61.64835164835165,0,1623.809523809524,1623.809523809524,2.417582417582418,-0.204773,0.283752,1.003845,-13.600311,20.082703,-14.519958,1,4,2,4,4,45.000000
2021-11-11 01:09:28.854,,,,,,,,,,,,,,,,,,,,,,,,,,,,,,,,,,,,,,/muse/elements/blink
2021-11-11 01:09:29.273,,,,,,,,,,,,,,,,,,,,,,,,,,,,,,,,,,,,,,/muse/elements/blink
2021-11-11 01:09:29.627,1.126742201222742,1.227705601937038,0.7884405901734071,0.9302655026689955,0.4220943743905174,0.9007311259893778,0.7470639884812434,0.7389412455472288,0.7482999783979003,0.9589285460752613,0.5351162420003469,0.9153373691483361,1.022456391089356,0.2728422576536761,0.5405063824737953,1.088550169547543,1.241929423994067,0.2324093974285599,0.5477470269635157,0.8476290349308179,898.1318681318681,0,5.641025641025641,334.8351648351648,672.893772893773,-0.074219,0.391235,0.911804,6.392670,-3.499146,-2.160797,1,4,4,4,4,45.000000
2021-11-11 01:09:29.876,,,,,,,,,,,,,,,,,,,,,,,,,,,,,,,,,,,,,,/muse/elements/blink
2021-11-11 01:09:30.393,,,,,,,,,,,,,,,,,,,,,,,,,,,,,,,,,,,,,,/muse/elements/blink
2021-11-11 01:09:30.624,1.126742201222742,1.227705601937038,0.7884405901734071,0.9302655026689955,0.4220943743905174,0.9007311259893778,0.7470639884812434,0.7389412455472288,0.7482999783979003,0.9589285460752613,0.5351162420003469,0.9153373691483361,1.022456391089356,0.2728422576536761,0.5405063824737953,1.088550169547543,1.241929423994067,0.2324093974285599,0.5477470269635157,0.8476290349308179,834.4688644688645,0,0,1623.809523809524,1623.406593406593,-0.134033,0.251038,0.898010,-14.916229,14.669495,-18.886414,1,2,2,4,4,45.000000
2021-11-11 01:09:31.011,,,,,,,,,,,,,,,,,,,,,,,,,,,,,,,,,,,,,,/muse/elements/jaw_clench
2021-11-11 01:09:31.182,,,,,,,,,,,,,,,,,,,,,,,,,,,,,,,,,,,,,,/muse/elements/blink
2021-11-11 01:09:31.508,,,,,,,,,,,,,,,,,,,,,,,,,,,,,,,,,,,,,,/muse/elements/blink
2021-11-11 01:09:31.624,1.126742201222742,1.227705601937038,0.7884405901734071,0.9302655026689955,0.4220943743905174,0.9007311259893778,0.7470639884812434,0.7389412455472288,0.7482999783979003,0.9589285460752613,0.5351162420003469,0.9153373691483361,1.022456391089356,0.2728422576536761,0.5405063824737953,1.088550169547543,1.241929423994067,0.2324093974285599,0.5477470269635157,0.8476290349308179,643.4798534798535,1504.139194139194,0,618.0952380952381,12.89377289377289,-0.205383,-0.018616,0.994080,2.886047,-0.598145,9.570312,1,4,4,4,4,45.000000
2021-11-11 01:09:31.718,,,,,,,,,,,,,,,,,,,,,,,,,,,,,,,,,,,,,,/muse/elements/blink
2021-11-11 01:09:31.886,,,,,,,,,,,,,,,,,,,,,,,,,,,,,,,,,,,,,,/muse/elements/blink
2021-11-11 01:09:32.310,,,,,,,,,,,,,,,,,,,,,,,,,,,,,,,,,,,,,,/muse/elements/blink
2021-11-11 01:09:32.624,1.126742201222742,1.227705601937038,0.7884405901734071,0.9302655026689955,0.4220943743905174,0.9007311259893778,0.7470639884812434,0.7389412455472288,0.7482999783979003,0.9589285460752613,0.5351162420003469,0.9153373691483361,1.022456391089356,0.2728422576536761,0.5405063824737953,1.088550169547543,1.241929423994067,0.2324093974285599,0.5477470269635157,0.8476290349308179,321.9413919413919,1624.212454212454,0,307.4358974358975,0,-0.203247,0.104736,0.992126,1.166382,-2.392578,20.553741,1,4,4,4,2,45.000000
2021-11-11 01:09:33.015,,,,,,,,,,,,,,,,,,,,,,,,,,,,,,,,,,,,,,/muse/elements/blink
2021-11-11 01:09:33.626,1.126742201222742,1.227705601937038,0.7884405901734071,0.9302655026689955,0.4220943743905174,0.9007311259893778,0.7470639884812434,0.7389412455472288,0.7482999783979003,0.9589285460752613,0.5351162420003469,0.9153373691483361,1.022456391089356,0.2728422576536761,0.5405063824737953,1.088550169547543,1.241929423994067,0.2324093974285599,0.5477470269635157,0.8476290349308179,309.8534798534799,1623.809523809524,0,1599.6336996337,0,-0.146729,0.045166,1.113281,8.291779,-20.830383,14.908752,1,2,4,4,4,45.000000
2021-11-11 01:09:33.644,,,,,,,,,,,,,,,,,,,,,,,,,,,,,,,,,,,,,,/muse/elements/blink
2021-11-11 01:09:34.345,,,,,,,,,,,,,,,,,,,,,,,,,,,,,,,,,,,,,,/muse/elements/blink
2021-11-11 01:09:34.624,1.126742201222742,1.227705601937038,0.7884405901734071,0.9302655026689955,0.4220943743905174,0.9007311259893778,0.7470639884812434,0.7389412455472288,0.7482999783979003,0.9589285460752613,0.5351162420003469,0.9153373691483361,1.022456391089356,0.2728422576536761,0.5405063824737953,1.088550169547543,1.241929423994067,0.2324093974285599,0.5477470269635157,0.8476290349308179,0,510.9157509157509,0,0,431.5384615384615,-0.301697,-0.019043,0.908325,12.934875,-13.181610,-13.547974,1,2,4,4,4,45.000000
2021-11-11 01:09:35.560,,,,,,,,,,,,,,,,,,,,,,,,,,,,,,,,,,,,,,/muse/elements/blink
2021-11-11 01:09:35.624,1.126742201222742,1.227705601937038,0.7884405901734071,0.9302655026689955,0.4220943743905174,0.9007311259893778,0.7470639884812434,0.7389412455472288,0.7482999783979003,0.9589285460752613,0.5351162420003469,0.9153373691483361,1.022456391089356,0.2728422576536761,0.5405063824737953,1.088550169547543,1.241929423994067,0.2324093974285599,0.5477470269635157,0.8476290349308179,0,1623.809523809524,1623.809523809524,0,521.7948717948718,-0.376221,0.020020,0.970459,-1.801910,-6.467438,6.886139,1,4,4,4,4,45.000000
2021-11-11 01:09:35.794,,,,,,,,,,,,,,,,,,,,,,,,,,,,,,,,,,,,,,/muse/elements/blink
2021-11-11 01:09:36.624,1.126742201222742,1.227705601937038,0.7884405901734071,0.9302655026689955,0.4220943743905174,0.9007311259893778,0.7470639884812434,0.7389412455472288,0.7482999783979003,0.9589285460752613,0.5351162420003469,0.9153373691483361,1.022456391089356,0.2728422576536761,0.5405063824737953,1.088550169547543,1.241929423994067,0.2324093974285599,0.5477470269635157,0.8476290349308179,726.0805860805862,531.8681318681319,750.2564102564103,961.3919413919414,902.967032967033,-0.500671,0.004211,0.897644,23.656616,-25.600586,-65.586548,1,4,2,4,2,45.000000
2021-11-11 01:09:36.758,,,,,,,,,,,,,,,,,,,,,,,,,,,,,,,,,,,,,,/muse/elements/blink
2021-11-11 01:09:37.106,,,,,,,,,,,,,,,,,,,,,,,,,,,,,,,,,,,,,,/muse/elements/blink
2021-11-11 01:09:37.631,1.126742201222742,1.227705601937038,0.7884405901734071,0.9302655026689955,0.4220943743905174,0.9007311259893778,0.7470639884812434,0.7389412455472288,0.7482999783979003,0.9589285460752613,0.5351162420003469,0.9153373691483361,1.022456391089356,0.2728422576536761,0.5405063824737953,1.088550169547543,1.241929423994067,0.2324093974285599,0.5477470269635157,0.8476290349308179,626.959706959707,636.2271062271062,882.4175824175825,770.4029304029305,684.981684981685,-0.323242,0.074524,0.949890,4.224396,-3.207550,-0.314026,1,4,4,2,2,45.000000
2021-11-11 01:09:38.506,,,,,,,,,,,,,,,,,,,,,,,,,,,,,,,,,,,,,,/muse/elements/blink
2021-11-11 01:09:38.631,1.126742201222742,1.227705601937038,0.7884405901734071,0.9302655026689955,0.4220943743905174,0.9007311259893778,0.7470639884812434,0.7389412455472288,0.7482999783979003,0.9589285460752613,0.5351162420003469,0.9153373691483361,1.022456391089356,0.2728422576536761,0.5405063824737953,1.088550169547543,1.241929423994067,0.2324093974285599,0.5477470269635157,0.8476290349308179,496.4102564102564,678.1318681318681,642.2710622710623,744.6153846153846,741.7948717948718,-0.347046,0.072510,0.943298,4.164581,-3.798218,-1.368256,1,2,1,2,2,45.000000
2021-11-11 01:09:39.530,,,,,,,,,,,,,,,,,,,,,,,,,,,,,,,,,,,,,,/muse/elements/blink
2021-11-11 01:09:39.634,1.126742201222742,1.227705601937038,0.7884405901734071,0.9302655026689955,0.4220943743905174,0.9007311259893778,0.7470639884812434,0.7389412455472288,0.7482999783979003,0.9589285460752613,0.5351162420003469,0.9153373691483361,1.022456391089356,0.2728422576536761,0.5405063824737953,1.088550169547543,1.241929423994067,0.2324093974285599,0.5477470269635157,0.8476290349308179,967.032967032967,739.3772893772893,1183.809523809524,807.4725274725275,780.4761904761905,-0.334717,0.072327,0.944580,3.140259,-7.701111,-4.515991,1,2,1,2,2,45.000000
2021-11-11 01:09:40.140,,,,,,,,,,,,,,,,,,,,,,,,,,,,,,,,,,,,,,/muse/elements/blink
2021-11-11 01:09:40.422,,,,,,,,,,,,,,,,,,,,,,,,,,,,,,,,,,,,,,/muse/elements/blink
2021-11-11 01:09:40.624,1.126742201222742,1.037430882966789,0.7884405901734071,0.9302655026689955,0.4220943743905174,0.2738610608480948,0.7470639884812434,0.7389412455472288,0.7482999783979003,0.3530424701993022,0.5351162420003469,0.9153373691483361,1.022456391089356,1.164020433112577,0.5405063824737953,1.088550169547543,1.241929423994067,0.5168859429529037,0.5477470269635157,0.8476290349308179,835.6776556776557,749.4505494505495,665.6410256410256,788.5347985347986,791.7582417582418,-0.331238,0.165771,0.939514,3.110352,-0.426178,3.910370,1,2,1,2,2,45.000000
2021-11-11 01:09:41.624,1.126742201222742,1.064737623314818,0.7884405901734071,0.9302655026689955,0.4220943743905174,-0.06878523863769115,0.7470639884812434,0.7389412455472288,0.7482999783979003,0.1811898704406635,0.5351162420003469,0.9153373691483361,1.022456391089356,1.079140962621185,0.5405063824737953,1.088550169547543,1.241929423994067,0.5454391847757171,0.5477470269635157,0.8476290349308179,614.4688644688645,743.4065934065934,646.3003663003664,717.2161172161173,774.4322344322345,-0.330811,0.117188,1.033264,-0.717773,-8.052521,-11.850739,1,2,1,2,2,45.000000
2021-11-11 01:09:41.885,,,,,,,,,,,,,,,,,,,,,,,,,,,,,,,,,,,,,,/muse/elements/blink
2021-11-11 01:09:42.264,,,,,,,,,,,,,,,,,,,,,,,,,,,,,,,,,,,,,,/muse/elements/blink
2021-11-11 01:09:42.624,1.126742201222742,1.057054722003337,0.7884405901734071,0.9302655026689955,0.4220943743905174,-0.08395826373872246,0.7470639884812434,0.7389412455472288,0.7482999783979003,0.3559620061709138,0.5351162420003469,0.9153373691483361,1.022456391089356,1.06468029327291,0.5405063824737953,1.088550169547543,1.241929423994067,0.5981209587826072,0.5477470269635157,0.8476290349308179,760.7326007326008,767.985347985348,819.1575091575091,875.9706959706959,713.1868131868132,-0.483398,0.267334,0.819214,13.899384,-6.101074,1.472931,1,2,1,2,2,45.000000
2021-11-11 01:09:42.863,,,,,,,,,,,,,,,,,,,,,,,,,,,,,,,,,,,,,,/muse/elements/blink
2021-11-11 01:09:43.376,,,,,,,,,,,,,,,,,,,,,,,,,,,,,,,,,,,,,,/muse/elements/blink
2021-11-11 01:09:43.608,,,,,,,,,,,,,,,,,,,,,,,,,,,,,,,,,,,,,,/muse/elements/blink
2021-11-11 01:09:43.624,1.126742201222742,0.9136768864316933,0.7884405901734071,0.9302655026689955,0.4220943743905174,-0.2246227620279477,0.7470639884812434,0.7389412455472288,0.7482999783979003,0.3330860322314606,0.5351162420003469,0.9153373691483361,1.022456391089356,1.044761015779966,0.5405063824737953,1.088550169547543,1.241929423994067,0.6833305605020781,0.5477470269635157,0.8476290349308179,1055.274725274725,669.2673992673992,860.2564102564103,868.7179487179487,865.8974358974359,-0.406921,0.249817,0.846497,16.620941,-5.727234,-1.966400,1,2,1,4,2,45.000000
2021-11-11 01:09:44.002,,,,,,,,,,,,,,,,,,,,,,,,,,,,,,,,,,,,,,/muse/elements/blink
2021-11-11 01:09:44.513,,,,,,,,,,,,,,,,,,,,,,,,,,,,,,,,,,,,,,/muse/elements/blink
2021-11-11 01:09:44.624,1.126742201222742,0.9136768864316933,0.7884405901734071,0.9302655026689955,0.4220943743905174,-0.2246227620279477,0.7470639884812434,0.7389412455472288,0.7482999783979003,0.3330860322314606,0.5351162420003469,0.9153373691483361,1.022456391089356,1.044761015779966,0.5405063824737953,1.088550169547543,1.241929423994067,0.6833305605020781,0.5477470269635157,0.8476290349308179,992.014652014652,729.3040293040293,1068.974358974359,875.1648351648352,736.5567765567765,-0.154602,0.323486,0.891235,2.444916,-5.966492,3.910370,1,2,1,4,2,45.000000
2021-11-11 01:09:44.679,,,,,,,,,,,,,,,,,,,,,,,,,,,,,,,,,,,,,,/muse/elements/blink
2021-11-11 01:09:45.211,,,,,,,,,,,,,,,,,,,,,,,,,,,,,,,,,,,,,,/muse/elements/blink
2021-11-11 01:09:45.629,1.126742201222742,1.408692795494867,0.7884405901734071,0.9302655026689955,0.4220943743905174,0.8840930056776908,0.7470639884812434,0.7389412455472288,0.7482999783979003,0.641309226098865,0.5351162420003469,0.9153373691483361,1.022456391089356,0.6439372427039193,0.5405063824737953,1.088550169547543,1.241929423994067,0.390119125205714,0.5477470269635157,0.8476290349308179,748.6446886446887,740.5860805860806,4.029304029304029,664.4322344322344,1090.32967032967,-0.163513,0.310181,0.946716,6.624451,-6.661835,-19.738770,1,2,1,2,2,45.000000
2021-11-11 01:09:45.808,,,,,,,,,,,,,,,,,,,,,,,,,,,,,,,,,,,,,,/muse/elements/blink
2021-11-11 01:09:46.132,,,,,,,,,,,,,,,,,,,,,,,,,,,,,,,,,,,,,,/muse/elements/blink
2021-11-11 01:09:46.631,1.126742201222742,1.640048685327739,0.7884405901734071,0.9302655026689955,0.4220943743905174,0.7460223386349116,0.7470639884812434,0.7389412455472288,0.7482999783979003,0.2989717042748756,0.5351162420003469,0.9153373691483361,1.022456391089356,0.6631865161690347,0.5405063824737953,1.088550169547543,1.241929423994067,0.1811767646226629,0.5477470269635157,0.8476290349308179,1280.915750915751,833.6630036630037,139.4139194139194,823.992673992674,686.996336996337,-0.288147,0.239685,0.929688,-6.332855,-11.671295,-5.981445,1,2,4,4,2,45.000000
2021-11-11 01:09:46.666,,,,,,,,,,,,,,,,,,,,,,,,,,,,,,,,,,,,,,/muse/elements/blink
2021-11-11 01:09:47.039,,,,,,,,,,,,,,,,,,,,,,,,,,,,,,,,,,,,,,/muse/elements/blink
2021-11-11 01:09:47.453,,,,,,,,,,,,,,,,,,,,,,,,,,,,,,,,,,,,,,/muse/elements/blink
2021-11-11 01:09:47.624,1.126742201222742,1.640048685327739,0.7884405901734071,0.9302655026689955,0.4220943743905174,0.7460223386349116,0.7470639884812434,0.7389412455472288,0.7482999783979003,0.2989717042748756,0.5351162420003469,0.9153373691483361,1.022456391089356,0.6631865161690347,0.5405063824737953,1.088550169547543,1.241929423994067,0.1811767646226629,0.5477470269635157,0.8476290349308179,1139.487179487179,1202.344322344322,0,857.032967032967,813.1135531135532,-0.229675,0.220215,1.035217,4.119720,-10.759125,5.248718,1,2,4,2,2,45.000000
2021-11-11 01:09:47.889,,,,,,,,,,,,,,,,,,,,,,,,,,,,,,,,,,,,,,/muse/elements/blink
2021-11-11 01:09:48.053,,,,,,,,,,,,,,,,,,,,,,,,,,,,,,,,,,,,,,/muse/elements/blink
2021-11-11 01:09:48.354,,,,,,,,,,,,,,,,,,,,,,,,,,,,,,,,,,,,,,/muse/elements/blink
2021-11-11 01:09:48.624,1.126742201222742,1.640048685327739,0.7884405901734071,0.9302655026689955,0.4220943743905174,0.7460223386349116,0.7470639884812434,0.7389412455472288,0.7482999783979003,0.2989717042748756,0.5351162420003469,0.9153373691483361,1.022456391089356,0.6631865161690347,0.5405063824737953,1.088550169547543,1.241929423994067,0.1811767646226629,0.5477470269635157,0.8476290349308179,1246.263736263736,660.8058608058608,925.5311355311355,883.2234432234433,785.3113553113553,-0.310181,0.253784,0.980774,16.733093,9.473114,6.848755,1,2,4,2,2,45.000000
2021-11-11 01:09:48.954,,,,,,,,,,,,,,,,,,,,,,,,,,,,,,,,,,,,,,/muse/elements/blink
2021-11-11 01:09:49.465,,,,,,,,,,,,,,,,,,,,,,,,,,,,,,,,,,,,,,/muse/elements/blink
2021-11-11 01:09:49.624,1.126742201222742,1.640048685327739,0.7884405901734071,0.9302655026689955,0.4220943743905174,0.7460223386349116,0.7470639884812434,0.7389412455472288,0.7482999783979003,0.2989717042748756,0.5351162420003469,0.9153373691483361,1.022456391089356,0.6631865161690347,0.5405063824737953,1.088550169547543,1.241929423994067,0.1811767646226629,0.5477470269635157,0.8476290349308179,1046.813186813187,713.5897435897436,180.1098901098901,1156.813186813187,989.5970695970697,-0.028198,0.188965,0.950928,15.693817,-18.392944,-63.313599,1,2,2,2,2,45.000000
2021-11-11 01:09:49.716,,,,,,,,,,,,,,,,,,,,,,,,,,,,,,,,,,,,,,/muse/elements/blink
2021-11-11 01:09:49.884,,,,,,,,,,,,,,,,,,,,,,,,,,,,,,,,,,,,,,/muse/elements/blink
2021-11-11 01:09:50.623,1.126742201222742,1.640048685327739,0.7884405901734071,0.9302655026689955,0.4220943743905174,0.7460223386349116,0.7470639884812434,0.7389412455472288,0.7482999783979003,0.2989717042748756,0.5351162420003469,0.9153373691483361,1.022456391089356,0.6631865161690347,0.5405063824737953,1.088550169547543,1.241929423994067,0.1811767646226629,0.5477470269635157,0.8476290349308179,1162.051282051282,849.7802197802198,159.1575091575092,697.8754578754579,644.6886446886447,-0.146423,0.338989,0.990723,9.017029,-2.856140,3.887939,1,2,1,2,2,45.000000
2021-11-11 01:09:50.923,,,,,,,,,,,,,,,,,,,,,,,,,,,,,,,,,,,,,,/muse/elements/blink
2021-11-11 01:09:51.623,1.126742201222742,1.640048685327739,0.7884405901734071,0.9302655026689955,0.4220943743905174,0.7460223386349116,0.7470639884812434,0.7389412455472288,0.7482999783979003,0.2989717042748756,0.5351162420003469,0.9153373691483361,1.022456391089356,0.6631865161690347,0.5405063824737953,1.088550169547543,1.241929423994067,0.1811767646226629,0.5477470269635157,0.8476290349308179,1189.047619047619,975.8974358974359,1623.809523809524,743.8095238095239,915.0549450549451,-0.234985,0.291382,0.917847,9.308624,-10.422668,-24.015503,1,2,1,2,2,45.000000
2021-11-11 01:09:51.808,,,,,,,,,,,,,,,,,,,,,,,,,,,,,,,,,,,,,,/muse/elements/blink
2021-11-11 01:09:52.508,,,,,,,,,,,,,,,,,,,,,,,,,,,,,,,,,,,,,,/muse/elements/blink
2021-11-11 01:09:52.623,1.126742201222742,1.640048685327739,0.7884405901734071,0.9302655026689955,0.4220943743905174,0.7460223386349116,0.7470639884812434,0.7389412455472288,0.7482999783979003,0.2989717042748756,0.5351162420003469,0.9153373691483361,1.022456391089356,0.6631865161690347,0.5405063824737953,1.088550169547543,1.241929423994067,0.1811767646226629,0.5477470269635157,0.8476290349308179,1031.501831501831,770.4029304029305,354.5787545787546,806.2637362637363,847.3626373626374,-0.337097,0.151184,0.952454,10.916138,0.755157,-12.247009,1,2,1,2,2,45.000000
2021-11-11 01:09:53.622,1.126742201222742,1.640048685327739,0.7884405901734071,0.9302655026689955,0.4220943743905174,0.7460223386349116,0.7470639884812434,0.7389412455472288,0.7482999783979003,0.2989717042748756,0.5351162420003469,0.9153373691483361,1.022456391089356,0.6631865161690347,0.5405063824737953,1.088550169547543,1.241929423994067,0.1811767646226629,0.5477470269635157,0.8476290349308179,1064.945054945055,792.5641025641025,218.3882783882784,815.5311355311355,707.948717948718,-0.276184,0.133301,0.948181,6.026306,-2.160797,-11.910553,1,2,1,2,2,45.000000
2021-11-11 01:09:54.580,,,,,,,,,,,,,,,,,,,,,,,,,,,,,,,,,,,,,,/muse/elements/blink
2021-11-11 01:09:54.624,0.7307994721286741,0.7605449602082085,0.7884405901734071,1.567212780412095,1.19373690606397,0.404990425108077,0.7470639884812434,0.308713369141279,1.131316020900218,0.3823437774933781,0.5351162420003469,0.3704120955639997,1.310508952137313,1.212041939282697,0.5405063824737953,0.9308440499398629,1.277160010904185,0.6968982346053846,0.5477470269635157,0.9635431582176084,1115.311355311355,789.7435897435897,452.0879120879121,832.8571428571429,817.948717948718,-0.298584,0.186890,0.941467,4.897308,-5.368347,3.431854,1,1,1,2,1,45.000000
2021-11-11 01:09:55.046,,,,,,,,,,,,,,,,,,,,,,,,,,,,,,,,,,,,,,/muse/elements/blink
2021-11-11 01:09:55.623,0.7307994721286741,0.8267960615004311,0.7884405901734071,1.61049671694058,1.19373690606397,0.6918614863925308,0.7470639884812434,0.3282562989277787,1.131316020900218,0.6955499532620658,0.5351162420003469,0.3669643101790229,1.310508952137313,1.164568119532365,0.5405063824737953,0.9106111236498622,1.277160010904185,0.5960948699037232,0.5477470269635157,0.9873042311634712,888.8644688644689,790.1465201465202,93.88278388278388,779.2673992673992,723.6630036630037,-0.258606,0.129639,1.015076,0.052338,-5.966492,5.263672,1,1,1,2,1,45.000000
2021-11-11 01:09:56.278,,,,,,,,,,,,,,,,,,,,,,,,,,,,,,,,,,,,,,/muse/elements/blink
2021-11-11 01:09:56.623,0.7307994721286741,1.505891243191883,0.7884405901734071,1.61049671694058,1.19373690606397,0.7317042062692816,0.7470639884812434,0.3282562989277787,1.131316020900218,0.7896141369997913,0.5351162420003469,0.3669643101790229,1.310508952137313,1.175478700309629,0.5405063824737953,0.9106111236498622,1.277160010904185,0.5787558202334193,0.5477470269635157,0.9873042311634712,1027.875457875458,786.5201465201466,221.6117216117216,855.8241758241759,596.3369963369963,-0.285095,0.154541,0.945129,6.856232,4.172058,-5.517883,1,1,1,1,1,45.000000
2021-11-11 01:09:56.674,,,,,,,,,,,,,,,,,,,,,,,,,,,,,,,,,,,,,,/muse/elements/blink
2021-11-11 01:09:57.018,,,,,,,,,,,,,,,,,,,,,,,,,,,,,,,,,,,,,,/muse/elements/blink
2021-11-11 01:09:57.483,,,,,,,,,,,,,,,,,,,,,,,,,,,,,,,,,,,,,,/muse/elements/blink
2021-11-11 01:09:57.627,0.7307994721286741,1.366746828843052,0.7884405901734071,1.61049671694058,1.19373690606397,-0.07901390510404881,0.7470639884812434,0.3282562989277787,1.131316020900218,0.2869485227382913,0.5351162420003469,0.3669643101790229,1.310508952137313,1.134105059490762,0.5405063824737953,0.9106111236498622,1.277160010904185,0.5543458372364193,0.5477470269635157,0.9873042311634712,709.5604395604396,811.5018315018315,32.63736263736264,854.2124542124542,823.5897435897436,-0.363708,0.234375,0.919006,15.476990,-9.241333,0.672913,1,2,1,2,2,45.000000
2021-11-11 01:09:57.732,,,,,,,,,,,,,,,,,,,,,,,,,,,,,,,,,,,,,,/muse/elements/blink
2021-11-11 01:09:58.237,,,,,,,,,,,,,,,,,,,,,,,,,,,,,,,,,,,,,,/muse/elements/blink
2021-11-11 01:09:58.623,0.7307994721286741,0.7237620213701197,0.7884405901734071,1.61049671694058,1.19373690606397,0.3434565311015628,0.7470639884812434,0.3282562989277787,1.131316020900218,0.6805155704092719,0.5351162420003469,0.3669643101790229,1.310508952137313,1.093306047761417,0.5405063824737953,0.9106111236498622,1.277160010904185,0.5434052205277667,0.5477470269635157,0.9873042311634712,758.7179487179487,798.2051282051282,89.45054945054946,741.7948717948718,806.2637362637363,-0.345703,0.291565,0.908997,-2.781372,2.183228,13.465729,1,2,1,2,2,45.000000
2021-11-11 01:09:58.720,,,,,,,,,,,,,,,,,,,,,,,,,,,,,,,,,,,,,,/muse/elements/blink
2021-11-11 01:09:59.304,,,,,,,,,,,,,,,,,,,,,,,,,,,,,,,,,,,,,,/muse/elements/blink
2021-11-11 01:09:59.622,0.7307994721286741,1.169710180058262,0.7884405901734071,1.61049671694058,1.19373690606397,0.8197897707201375,0.7470639884812434,0.3282562989277787,1.131316020900218,0.7016433015670326,0.5351162420003469,0.3669643101790229,1.310508952137313,1.086507875436502,0.5405063824737953,0.9106111236498622,1.277160010904185,0.4834019881290227,0.5477470269635157,0.9873042311634712,871.1355311355312,833.6630036630037,100.3296703296703,779.2673992673992,645.0915750915751,-0.104919,0.334534,1.000061,2.646790,-18.056488,-1.031799,1,2,1,2,2,45.000000
2021-11-11 01:09:59.925,,,,,,,,,,,,,,,,,,,,,,,,,,,,,,,,,,,,,,/muse/elements/blink
2021-11-11 01:10:00.356,,,,,,,,,,,,,,,,,,,,,,,,,,,,,,,,,,,,,,/muse/elements/blink
2021-11-11 01:10:00.623,0.7307994721286741,1.097761752084647,0.7884405901734071,1.61049671694058,1.19373690606397,0.9253049226725575,0.7470639884812434,0.3282562989277787,1.131316020900218,0.6829873908114086,0.5351162420003469,0.3669643101790229,1.310508952137313,1.016390227880806,0.5405063824737953,0.9106111236498622,1.277160010904185,0.4583018028331576,0.5477470269635157,0.9873042311634712,941.2454212454213,838.901098901099,248.6080586080586,826.4102564102565,714.3956043956044,-0.201111,0.177429,0.952209,10.250702,6.332855,30.116577,1,2,1,2,2,45.000000
2021-11-11 01:10:00.765,,,,,,,,,,,,,,,,,,,,,,,,,,,,,,,,,,,,,,/muse/elements/blink
2021-11-11 01:10:00.950,,,,,,,,,,,,,,,,,,,,,,,,,,,,,,,,,,,,,,/muse/elements/blink
2021-11-11 01:10:01.623,0.7307994721286741,1.169860698551426,0.7884405901734071,1.61049671694058,1.19373690606397,0.7573011684852526,0.7470639884812434,0.3282562989277787,1.131316020900218,0.716536221385256,0.5351162420003469,0.3669643101790229,1.310508952137313,1.020429002225596,0.5405063824737953,0.9106111236498622,1.277160010904185,0.5682680398415807,0.5477470269635157,0.9873042311634712,1052.857142857143,821.5750915750916,134.5787545787546,859.4505494505495,873.1501831501831,-0.210266,0.208618,0.963806,-0.919647,3.424377,-5.824432,1,2,1,1,2,45.000000
2021-11-11 01:10:02.260,,,,,,,,,,,,,,,,,,,,,,,,,,,,,,,,,,,,,,/muse/elements/blink
2021-11-11 01:10:02.623,0.7307994721286741,1.033139166270378,0.7884405901734071,1.61049671694058,1.19373690606397,0.5620779827428398,0.7470639884812434,0.3282562989277787,1.131316020900218,0.7216122756008939,0.5351162420003469,0.3669643101790229,1.310508952137313,1.005677206346533,0.5405063824737953,0.9106111236498622,1.277160010904185,0.4855229320100493,0.5477470269635157,0.9873042311634712,756.3003663003664,844.1391941391942,1623.809523809524,793.3699633699634,712.7838827838829,-0.459961,0.181946,0.941223,4.366455,-19.559326,-11.880646,1,2,1,2,2,45.000000
2021-11-11 01:10:03.112,,,,,,,,,,,,,,,,,,,,,,,,,,,,,,,,,,,,,,/muse/elements/blink
2021-11-11 01:10:03.481,,,,,,,,,,,,,,,,,,,,,,,,,,,,,,,,,,,,,,/muse/elements/blink
2021-11-11 01:10:03.631,0.7307994721286741,1.004247753788252,0.7884405901734071,1.61049671694058,1.19373690606397,0.5886899995174015,0.7470639884812434,0.3282562989277787,1.131316020900218,0.4918071034264013,0.5351162420003469,0.3669643101790229,1.310508952137313,0.9332298891906313,0.5405063824737953,0.9106111236498622,1.277160010904185,0.3773160333267636,0.5477470269635157,0.9873042311634712,610.4395604395604,674.9084249084249,1624.212454212454,645.8974358974359,329.1941391941392,-0.244385,-0.103821,0.949768,13.301239,-3.304749,-6.534729,1,2,1,4,2,45.000000
2021-11-11 01:10:03.897,,,,,,,,,,,,,,,,,,,,,,,,,,,,,,,,,,,,,,/muse/elements/blink
2021-11-11 01:10:04.445,,,,,,,,,,,,,,,,,,,,,,,,,,,,,,,,,,,,,,/muse/elements/blink
2021-11-11 01:10:04.623,0.7307994721286741,0.9909832688418929,0.7884405901734071,1.61049671694058,1.19373690606397,0.658927336250052,0.7470639884812434,0.3282562989277787,1.131316020900218,0.2981424115076174,0.5351162420003469,0.3669643101790229,1.310508952137313,0.9576292565876598,0.5405063824737953,0.9106111236498622,1.277160010904185,0.4361318077576653,0.5477470269635157,0.9873042311634712,653.5531135531136,596.3369963369963,0,602.7838827838827,552.8205128205128,-0.193542,-0.125488,0.950562,-7.813263,7.581482,4.710388,1,2,4,4,2,45.000000
2021-11-11 01:10:04.934,,,,,,,,,,,,,,,,,,,,,,,,,,,,,,,,,,,,,,/muse/elements/blink
2021-11-11 01:10:05.623,0.7307994721286741,0.9909832688418929,0.7884405901734071,1.61049671694058,1.19373690606397,0.658927336250052,0.7470639884812434,0.3282562989277787,1.131316020900218,0.2981424115076174,0.5351162420003469,0.3669643101790229,1.310508952137313,0.9576292565876598,0.5405063824737953,0.9106111236498622,1.277160010904185,0.4361318077576653,0.5477470269635157,0.9873042311634712,770,719.2307692307693,0,735.7509157509157,599.9633699633699,-0.259338,-0.243652,0.835754,19.506989,-12.374115,3.274841,1,2,1,2,2,40.000000
2021-11-11 01:10:06.156,,,,,,,,,,,,,,,,,,,,,,,,,,,,,,,,,,,,,,/muse/elements/blink
2021-11-11 01:10:06.623,0.7307994721286741,0.9909832688418929,0.7884405901734071,1.61049671694058,1.19373690606397,0.658927336250052,0.7470639884812434,0.3282562989277787,1.131316020900218,0.2981424115076174,0.5351162420003469,0.3669643101790229,1.310508952137313,0.9576292565876598,0.5405063824737953,0.9106111236498622,1.277160010904185,0.4361318077576653,0.5477470269635157,0.9873042311634712,792.967032967033,622.9304029304029,0,839.3040293040293,734.1391941391942,-0.246399,-0.035156,0.999390,5.779572,-5.921631,-4.583282,1,2,1,2,2,40.000000
2021-11-11 01:10:06.638,,,,,,,,,,,,,,,,,,,,,,,,,,,,,,,,,,,,,,/muse/elements/blink
2021-11-11 01:10:06.866,,,,,,,,,,,,,,,,,,,,,,,,,,,,,,,,,,,,,,/muse/elements/jaw_clench
2021-11-11 01:10:07.054,,,,,,,,,,,,,,,,,,,,,,,,,,,,,,,,,,,,,,/muse/elements/blink
2021-11-11 01:10:07.468,,,,,,,,,,,,,,,,,,,,,,,,,,,,,,,,,,,,,,/muse/elements/jaw_clench
2021-11-11 01:10:07.623,0.7307994721286741,0.9909832688418929,0.7884405901734071,1.61049671694058,1.19373690606397,0.658927336250052,0.7470639884812434,0.3282562989277787,1.131316020900218,0.2981424115076174,0.5351162420003469,0.3669643101790229,1.310508952137313,0.9576292565876598,0.5405063824737953,0.9106111236498622,1.277160010904185,0.4361318077576653,0.5477470269635157,0.9873042311634712,488.3516483516484,776.4468864468864,0,819.1575091575091,736.959706959707,-0.244263,0.002014,0.960632,16.284485,-5.091705,37.825165,1,2,1,1,2,40.000000
2021-11-11 01:10:07.748,,,,,,,,,,,,,,,,,,,,,,,,,,,,,,,,,,,,,,/muse/elements/jaw_clench
2021-11-11 01:10:08.623,0.7307994721286741,0.9909832688418929,0.7884405901734071,1.61049671694058,1.19373690606397,0.658927336250052,0.7470639884812434,0.3282562989277787,1.131316020900218,0.2981424115076174,0.5351162420003469,0.3669643101790229,1.310508952137313,0.9576292565876598,0.5405063824737953,0.9106111236498622,1.277160010904185,0.4361318077576653,0.5477470269635157,0.9873042311634712,540.7326007326008,718.8278388278388,0,720.8424908424909,729.7069597069598,-0.208984,0.084839,0.979797,-6.198273,-5.039368,-12.613373,1,2,1,2,2,40.000000
2021-11-11 01:10:09.623,0.7307994721286741,0.9909832688418929,0.7884405901734071,1.61049671694058,1.19373690606397,0.658927336250052,0.7470639884812434,0.3282562989277787,1.131316020900218,0.2981424115076174,0.5351162420003469,0.3669643101790229,1.310508952137313,0.9576292565876598,0.5405063824737953,0.9106111236498622,1.277160010904185,0.4361318077576653,0.5477470269635157,0.9873042311634712,684.1758241758242,815.934065934066,0,765.1648351648352,751.8681318681319,-0.140625,0.013489,0.984680,11.275024,-11.738586,-43.447723,1,2,1,1,2,40.000000
2021-11-11 01:10:10.610,,,,,,,,,,,,,,,,,,,,,,,,,,,,,,,,,,,,,,/muse/elements/jaw_clench
2021-11-11 01:10:10.623,0.7307994721286741,0.9909832688418929,0.7884405901734071,1.175732466274592,1.19373690606397,0.658927336250052,0.7470639884812434,0.7423970321689551,1.131316020900218,0.2981424115076174,0.5351162420003469,0.7323324956188557,1.310508952137313,0.9576292565876598,0.5405063824737953,0.9269485313363859,1.277160010904185,0.4361318077576653,0.5477470269635157,0.8013496032589689,594.7252747252747,807.8754578754579,33.84615384615385,645.0915750915751,939.2307692307693,-0.168884,0.027771,0.987854,3.865509,-4.456177,-5.644989,1,1,1,4,1,40.000000
2021-11-11 01:10:10.799,,,,,,,,,,,,,,,,,,,,,,,,,,,,,,,,,,,,,,/muse/elements/blink
2021-11-11 01:10:11.220,,,,,,,,,,,,,,,,,,,,,,,,,,,,,,,,,,,,,,/muse/elements/jaw_clench
2021-11-11 01:10:11.623,0.7307994721286741,0.9909832688418929,0.7884405901734071,1.124969123387872,1.19373690606397,0.658927336250052,0.7470639884812434,0.6066732553902825,1.131316020900218,0.2981424115076174,0.5351162420003469,0.7244314527786833,1.310508952137313,0.9576292565876598,0.5405063824737953,0.9122691632157558,1.277160010904185,0.4361318077576653,0.5477470269635157,0.7550284856626769,747.4358974358975,635.4212454212454,54.7985347985348,769.1941391941392,619.7069597069598,-0.170227,0.042542,0.996155,4.673004,-6.467438,-2.355194,1,1,1,1,1,40.000000
2021-11-11 01:10:12.103,,,,,,,,,,,,,,,,,,,,,,,,,,,,,,,,,,,,,,/muse/elements/blink
2021-11-11 01:10:12.623,0.7307994721286741,0.9909832688418929,0.7884405901734071,1.061170921110007,1.19373690606397,0.658927336250052,0.7470639884812434,0.5257692324169271,1.131316020900218,0.2981424115076174,0.5351162420003469,0.7129327230570109,1.310508952137313,0.9576292565876598,0.5405063824737953,0.8997551789862264,1.277160010904185,0.4361318077576653,0.5477470269635157,0.7115533882901801,703.1135531135532,790.952380952381,0,766.3736263736264,777.2527472527473,-0.187073,0.030701,0.989624,2.392578,-3.648682,10.893707,1,1,2,1,1,40.000000
2021-11-11 01:10:13.142,,,,,,,,,,,,,,,,,,,,,,,,,,,,,,,,,,,,,,/muse/elements/blink
2021-11-11 01:10:13.623,0.7307994721286741,0.9909832688418929,0.7884405901734071,1.061170921110007,1.19373690606397,0.658927336250052,0.7470639884812434,0.5257692324169271,1.131316020900218,0.2981424115076174,0.5351162420003469,0.7129327230570109,1.310508952137313,0.9576292565876598,0.5405063824737953,0.8997551789862264,1.277160010904185,0.4361318077576653,0.5477470269635157,0.7115533882901801,865.8974358974359,716.4102564102565,91.06227106227107,821.5750915750916,852.6007326007326,-0.188538,0.010498,0.990356,4.351501,-6.063690,-4.575806,1,2,2,4,2,40.000000
2021-11-11 01:10:13.656,,,,,,,,,,,,,,,,,,,,,,,,,,,,,,,,,,,,,,/muse/elements/blink
2021-11-11 01:10:14.623,0.7307994721286741,0.9909832688418929,0.7884405901734071,1.061170921110007,1.19373690606397,0.658927336250052,0.7470639884812434,0.5257692324169271,1.131316020900218,0.2981424115076174,0.5351162420003469,0.7129327230570109,1.310508952137313,0.9576292565876598,0.5405063824737953,0.8997551789862264,1.277160010904185,0.4361318077576653,0.5477470269635157,0.7115533882901801,662.4175824175825,766.3736263736264,101.9413919413919,795.7875457875458,672.0879120879121,-0.197693,0.010315,0.983215,4.755249,-5.248718,-2.325287,1,2,1,1,2,40.000000
2021-11-11 01:10:15.073,,,,,,,,,,,,,,,,,,,,,,,,,,,,,,,,,,,,,,/muse/elements/blink
2021-11-11 01:10:15.585,,,,,,,,,,,,,,,,,,,,,,,,,,,,,,,,,,,,,,/muse/elements/blink
2021-11-11 01:10:15.623,0.7307994721286741,0.9909832688418929,0.7884405901734071,1.061170921110007,1.19373690606397,0.658927336250052,0.7470639884812434,0.5257692324169271,1.131316020900218,0.2981424115076174,0.5351162420003469,0.7129327230570109,1.310508952137313,0.9576292565876598,0.5405063824737953,0.8997551789862264,1.277160010904185,0.4361318077576653,0.5477470269635157,0.7115533882901801,925.1282051282052,732.5274725274726,0,861.8681318681319,706.3369963369963,-0.215576,0.027100,0.979309,1.749573,-7.416992,2.631836,1,2,2,1,2,40.000000
2021-11-11 01:10:16.623,0.7307994721286741,1.437978558247662,0.7884405901734071,1.061170921110007,1.19373690606397,0.4719869827728057,0.7470639884812434,0.5257692324169271,1.131316020900218,0.02381310930728388,0.5351162420003469,0.7129327230570109,1.310508952137313,0.9283556305264461,0.5405063824737953,0.8997551789862264,1.277160010904185,0.6193707523104461,0.5477470269635157,0.7115533882901801,866.7032967032967,1623.809523809524,1535.970695970696,811.0989010989011,868.7179487179487,-0.210815,0.006714,0.987732,7.020721,-8.478699,-1.809387,1,2,1,1,2,45.000000
2021-11-11 01:10:17.308,,,,,,,,,,,,,,,,,,,,,,,,,,,,,,,,,,,,,,/muse/elements/blink
2021-11-11 01:10:17.517,,,,,,,,,,,,,,,,,,,,,,,,,,,,,,,,,,,,,,/muse/elements/blink
2021-11-11 01:10:17.623,0.7307994721286741,1.437978558247662,0.7884405901734071,1.061170921110007,1.19373690606397,0.4719869827728057,0.7470639884812434,0.5257692324169271,1.131316020900218,0.02381310930728388,0.5351162420003469,0.7129327230570109,1.310508952137313,0.9283556305264461,0.5405063824737953,0.8997551789862264,1.277160010904185,0.6193707523104461,0.5477470269635157,0.7115533882901801,674.5054945054945,434.3589743589744,184.5421245421246,779.6703296703297,715.2014652014652,-0.191650,0.014832,1.005188,4.702911,-6.863708,-5.652466,1,2,4,4,2,45.000000
2021-11-11 01:10:17.727,,,,,,,,,,,,,,,,,,,,,,,,,,,,,,,,,,,,,,/muse/elements/blink
2021-11-11 01:10:18.623,0.7307994721286741,1.437978558247662,0.7884405901734071,1.061170921110007,1.19373690606397,0.4719869827728057,0.7470639884812434,0.5257692324169271,1.131316020900218,0.02381310930728388,0.5351162420003469,0.7129327230570109,1.310508952137313,0.9283556305264461,0.5405063824737953,0.8997551789862264,1.277160010904185,0.6193707523104461,0.5477470269635157,0.7115533882901801,718.8278388278388,562.893772893773,0,810.2930402930403,859.8534798534798,-0.179688,-0.018982,0.999329,-2.983246,-5.286102,10.512390,1,2,1,1,2,45.000000
2021-11-11 01:10:19.623,1.343184433950682,1.437978558247662,-0.01582235466799397,1.259677970065611,0.9121020440972495,0.4719869827728057,-0.1072327695102172,0.4395840191702234,0.7139058744153031,0.02381310930728388,0.2699643453946539,0.6752369536316741,0.527670831917342,0.9283556305264461,0.3843965291957029,0.7595229529489695,0.5237848124202653,0.6193707523104461,0.243420431220222,0.6133138096677533,923.919413919414,662.8205128205128,0.4029304029304029,819.1575091575091,832.0512820512821,-0.155762,-0.075134,0.991882,4.740295,-3.342133,-0.396271,1,1,1,1,1,45.000000
2021-11-11 01:10:19.653,,,,,,,,,,,,,,,,,,,,,,,,,,,,,,,,,,,,,,/muse/elements/blink
2021-11-11 01:10:20.622,1.169625302502661,1.446004665525175,0.4397964131185124,0.8471725118616991,0.8601097220966859,0.9435765769029432,0.4563136636915424,0.5271170940581231,0.689699552786412,0.7441265272578873,0.6055324341048941,0.7349677293748602,0.5016813559796784,0.6662379852614525,0.6664978137315948,0.7733210189335603,0.4629618298127837,0.1363733012126287,0.4959564210763445,0.5784038163519677,869.92673992674,703.5164835164835,146.6666666666667,799.8168498168499,762.7472527472528,-0.167603,-0.071655,0.994629,4.441223,-4.314117,-2.100983,1,1,1,1,1,45.000000
2021-11-11 01:10:20.973,,,,,,,,,,,,,,,,,,,,,,,,,,,,,,,,,,,,,,/muse/elements/blink
2021-11-11 01:10:21.490,,,,,,,,,,,,,,,,,,,,,,,,,,,,,,,,,,,,,,/muse/elements/blink
2021-11-11 01:10:21.623,1.169625302502661,1.596613615140824,1.208148648650761,0.9182700958743217,0.8601097220966859,0.8638689725726506,1.385388970026264,0.7129027876549084,0.689699552786412,0.8742841570492556,1.043613946770446,0.6162885351370184,0.5016813559796784,0.6176285662514683,1.371926506672285,0.7229031710036484,0.4629618298127837,0.1440916180841786,1.176590367491371,0.6542390442906159,828.8278388278388,717.2161172161173,0,790.952380952381,1023.040293040293,-0.176025,-0.080383,0.987244,5.846863,-4.052429,-6.916046,1,1,1,1,1,45.000000
2021-11-11 01:10:21.870,,,,,,,,,,,,,,,,,,,,,,,,,,,,,,,,,,,,,,/muse/elements/jaw_clench
2021-11-11 01:10:22.196,,,,,,,,,,,,,,,,,,,,,,,,,,,,,,,,,,,,,,/muse/elements/blink
2021-11-11 01:10:22.480,,,,,,,,,,,,,,,,,,,,,,,,,,,,,,,,,,,,,,/muse/elements/blink
2021-11-11 01:10:22.628,1.169625302502661,1.761849923220552,1.208148648650761,0.9182700958743217,0.8601097220966859,1.189517033998186,1.385388970026264,0.7129027876549084,0.689699552786412,0.8738508962379956,1.043613946770446,0.6162885351370184,0.5016813559796784,0.5632266755842337,1.371926506672285,0.7229031710036484,0.4629618298127837,0.2449016581274722,1.176590367491371,0.6542390442906159,948.0952380952381,733.3333333333334,0,848.1684981684982,861.4652014652015,-0.163147,-0.092468,0.993408,3.200073,-5.869293,3.611298,1,1,1,1,1,45.000000
2021-11-11 01:10:23.622,1.169625302502661,1.977086128122055,1.208148648650761,0.9182700958743217,0.8601097220966859,1.3861224885416,1.385388970026264,0.7129027876549084,0.689699552786412,0.2751832085032105,1.043613946770446,0.6162885351370184,0.5016813559796784,0.3818787780867889,1.371926506672285,0.7229031710036484,0.4629618298127837,0.03617406306704449,1.176590367491371,0.6542390442906159,912.2344322344322,753.8827838827839,67.69230769230769,835.6776556776557,623.3333333333334,-0.118530,-0.039062,0.999329,5.757141,-6.078644,-9.951630,1,2,1,1,2,45.000000
2021-11-11 01:10:24.099,,,,,,,,,,,,,,,,,,,,,,,,,,,,,,,,,,,,,,/muse/elements/blink
2021-11-11 01:10:24.622,1.169625302502661,1.729020829402085,1.208148648650761,1.604298169552554,0.8601097220966859,1.187551269148645,1.385388970026264,1.284210647619257,0.689699552786412,0.5825768314137612,1.043613946770446,0.7811684317809154,0.5016813559796784,0.5818090264566218,1.371926506672285,0.435093749368732,0.4629618298127837,-0.06484516219200315,1.176590367491371,-0.07619474546316263,908.6080586080586,775.2380952380953,138.2051282051282,839.3040293040293,863.8827838827839,-0.154480,-0.057861,0.994873,5.353394,-5.577698,-3.267365,1,1,1,1,1,45.000000
2021-11-11 01:10:25.622,1.169625302502661,0.9336648139129728,1.208148648650761,1.5903015099973,0.8601097220966859,0.4503680733630481,1.385388970026264,1.218129229645313,0.689699552786412,0.5859677407501647,1.043613946770446,0.7380531014057979,0.5016813559796784,0.5623095716379982,1.371926506672285,0.4168583094574502,0.4629618298127837,-0.1131352320708853,1.176590367491371,-0.0971738667067031,851.3919413919414,779.6703296703297,165.6043956043956,804.6520146520147,839.3040293040293,-0.164856,-0.054626,0.990295,3.865509,-3.581390,2.781372,1,1,1,1,1,45.000000
2021-11-11 01:10:26.560,,,,,,,,,,,,,,,,,,,,,,,,,,,,,,,,,,,,,,/muse/elements/blink
2021-11-11 01:10:26.622,1.059068702745984,0.61966034721398,1.208148648650761,0.8109406749710055,0.8781186357983651,0.3104139572345452,1.385388970026264,0.6751355497646109,0.7106163829762283,0.5169388869067785,1.043613946770446,0.3817866790137987,1.02156856769243,0.5099011636739801,1.371926506672285,0.7596828539490288,0.4815806312432829,-0.1685678585388726,1.176590367491371,0.4108305932909736,952.1245421245421,807.8754578754579,340.4761904761905,822.7838827838829,744.2124542124542,-0.167297,-0.038452,0.997314,4.366455,-5.009460,1.271057,1,1,1,4,1,45.000000
2021-11-11 01:10:27.622,1.473606812126361,0.2042643737834431,1.208148648650761,1.320938774633972,1.163579879321158,0.1715437329461414,1.385388970026264,1.113167197280463,0.9301604740757072,0.2083810849011147,1.043613946770446,0.6708170243617285,0.7743680825219401,0.5131808675514947,1.371926506672285,0.6704413741310561,0.5449208842838237,-0.1775705718731014,1.176590367491371,0.4162885343834031,941.2454212454213,796.5934065934066,37.06959706959707,841.3186813186813,1056.886446886447,-0.155151,-0.045898,1.000427,4.321594,-4.493561,-2.347717,1,1,1,4,1,45.000000
2021-11-11 01:10:27.857,,,,,,,,,,,,,,,,,,,,,,,,,,,,,,,,,,,,,,/muse/elements/jaw_clench
2021-11-11 01:10:27.949,,,,,,,,,,,,,,,,,,,,,,,,,,,,,,,,,,,,,,/muse/elements/blink
2021-11-11 01:10:28.387,,,,,,,,,,,,,,,,,,,,,,,,,,,,,,,,,,,,,,/muse/elements/jaw_clench
2021-11-11 01:10:28.550,,,,,,,,,,,,,,,,,,,,,,,,,,,,,,,,,,,,,,/muse/elements/blink
2021-11-11 01:10:28.550,,,,,,,,,,,,,,,,,,,,,,,,,,,,,,,,,,,,,,/muse/elements/jaw_clench
2021-11-11 01:10:28.622,1.269892657852089,0.6240485927353266,1.208148648650761,1.16060778118883,0.7910962021536206,0.2900519731759986,1.385388970026264,0.6778936358180363,0.8227673358571788,0.3127345584007278,1.043613946770446,0.3549668156627621,0.5827149474105434,0.4790127495835948,1.371926506672285,0.4926861709164311,0.6090325257359709,0.01333848865762128,1.176590367491371,0.5235305656277328,629.7802197802198,1106.043956043956,1623.809523809524,617.2893772893773,695.8608058608058,-0.487732,0.105164,0.890198,24.643555,40.913086,7.820740,1,1,1,4,1,45.000000
2021-11-11 01:10:29.622,1.341809209658816,0.9539507558115239,1.208148648650761,1.260890568263164,0.7396798872613209,0.5729958565032396,1.385388970026264,0.5656388407519513,0.6486831462581865,0.2759271798917959,1.043613946770446,0.2938313574661136,0.6089655580702019,0.2664924276084016,1.371926506672285,0.4636409951895434,0.5669165078277292,0.08940577486851298,1.176590367491371,0.5696839167822056,1151.172161172161,782.893772893773,0,877.1794871794872,729.3040293040293,-0.494873,0.303711,0.876160,-5.764618,-3.798218,6.026306,1,4,1,4,1,45.000000
2021-11-11 01:10:29.945,,,,,,,,,,,,,,,,,,,,,,,,,,,,,,,,,,,,,,/muse/elements/blink
2021-11-11 01:10:30.016,,,,,,,,,,,,,,,,,,,,,,,,,,,,,,,,,,,,,,/muse/elements/jaw_clench
2021-11-11 01:10:30.296,,,,,,,,,,,,,,,,,,,,,,,,,,,,,,,,,,,,,,/muse/elements/blink
2021-11-11 01:10:30.621,1.341809209658816,1.475104900818365,1.208148648650761,1.260890568263164,0.7396798872613209,0.9151512960680501,1.385388970026264,0.5656388407519513,0.6486831462581865,0.7158656974427459,1.043613946770446,0.2938313574661136,0.6089655580702019,0.7970986998275009,1.371926506672285,0.4636409951895434,0.5669165078277292,0.5464357660157851,1.176590367491371,0.5696839167822056,904.981684981685,838.0952380952381,91.86813186813187,718.021978021978,640.2564102564103,-0.417786,0.189941,0.834534,10.759125,-9.031982,-14.699402,1,2,1,4,2,45.000000
2021-11-11 01:10:30.818,,,,,,,,,,,,,,,,,,,,,,,,,,,,,,,,,,,,,,/muse/elements/blink
2021-11-11 01:10:31.133,,,,,,,,,,,,,,,,,,,,,,,,,,,,,,,,,,,,,,/muse/elements/blink
2021-11-11 01:10:31.434,,,,,,,,,,,,,,,,,,,,,,,,,,,,,,,,,,,,,,/muse/elements/blink
2021-11-11 01:10:31.628,1.341809209658816,1.513938960783813,1.208148648650761,1.260890568263164,0.7396798872613209,1.03589499620469,1.385388970026264,0.5656388407519513,0.6486831462581865,0.8180387719063994,1.043613946770446,0.2938313574661136,0.6089655580702019,0.7372683158334267,1.371926506672285,0.4636409951895434,0.5669165078277292,0.4272288034967301,1.176590367491371,0.5696839167822056,875.1648351648352,798.2051282051282,32.23443223443223,826.007326007326,731.7216117216118,-0.297302,0.166748,0.937927,3.312225,-2.392578,2.250519,1,2,1,1,2,45.000000
2021-11-11 01:10:32.622,1.341809209658816,1.271099991455737,0.86272572815191,1.260890568263164,0.7396798872613209,0.8505018383725299,0.9801041420896219,0.5656388407519513,0.6486831462581865,0.6765327675689599,0.9956498994455807,0.2938313574661136,0.6089655580702019,0.5274375692795101,1.445675096976323,0.4636409951895434,0.5669165078277292,0.04816111435384056,1.258214090869236,0.5696839167822056,883.2234432234433,793.3699633699634,41.5018315018315,784.5054945054945,684.1758241758242,-0.302612,0.156189,0.950745,1.861725,-5.188904,0.553284,1,2,1,1,2,45.000000
2021-11-11 01:10:33.443,,,,,,,,,,,,,,,,,,,,,,,,,,,,,,,,,,,,,,/muse/elements/blink
2021-11-11 01:10:33.622,1.624286358853254,0.8980117542208949,0.7674748957363955,1.260890568263164,1.071696021572628,0.2621003619362623,1.124674999061353,0.5656388407519513,0.8383110481728624,0.4181995557522977,1.05723876889253,0.2938313574661136,0.6383064708880832,0.4280574664855366,1.484348185423178,0.4636409951895434,0.6957719491832834,0.05698556034313101,1.288765814675408,0.5696839167822056,969.4505494505495,803.040293040293,127.7289377289377,801.025641025641,722.4542124542124,-0.315430,0.137085,0.945251,4.314117,-1.719666,-3.947754,1,1,1,1,1,45.000000
2021-11-11 01:10:33.760,,,,,,,,,,,,,,,,,,,,,,,,,,,,,,,,,,,,,,/muse/elements/jaw_clench
2021-11-11 01:10:34.385,,,,,,,,,,,,,,,,,,,,,,,,,,,,,,,,,,,,,,/muse/elements/blink
2021-11-11 01:10:34.621,1.061866768221809,1.087832474815618,0.7299530782597979,1.260890568263164,0.8654560782218303,0.6642689061881895,1.15259558154567,0.5656388407519513,0.8078048287718862,0.6031401164639106,1.032751180250138,0.2938313574661136,0.7128610647843003,0.4119672998931038,1.494798010885838,0.4636409951895434,0.5286229203228713,0.04659869644638464,1.295799697135998,0.5696839167822056,764.3589743589744,778.0586080586081,0,786.9230769230769,780.4761904761905,-0.311707,0.117493,0.946472,5.076752,-6.145935,-1.181335,1,1,1,1,1,45.000000
2021-11-11 01:10:34.804,,,,,,,,,,,,,,,,,,,,,,,,,,,,,,,,,,,,,,/muse/elements/jaw_clench
2021-11-11 01:10:34.972,,,,,,,,,,,,,,,,,,,,,,,,,,,,,,,,,,,,,,/muse/elements/jaw_clench
2021-11-11 01:10:35.393,,,,,,,,,,,,,,,,,,,,,,,,,,,,,,,,,,,,,,/muse/elements/blink
2021-11-11 01:10:35.622,1.061866768221809,0.8984545967505344,0.7299530782597979,1.260890568263164,0.8654560782218303,0.3764361348077953,1.15259558154567,0.5656388407519513,0.8078048287718862,0.3335581924737165,1.032751180250138,0.2938313574661136,0.7128610647843003,0.4608567626580158,1.494798010885838,0.4636409951895434,0.5286229203228713,-0.03554757477796354,1.295799697135998,0.5696839167822056,777.2527472527473,787.7289377289378,55.60439560439561,804.2490842490843,672.4908424908425,-0.382385,0.165039,0.847839,10.841370,0.964508,-19.349976,1,1,1,1,1,45.000000
2021-11-11 01:10:36.095,,,,,,,,,,,,,,,,,,,,,,,,,,,,,,,,,,,,,,/muse/elements/blink
2021-11-11 01:10:36.622,1.061866768221809,0.6739056300929973,0.7299530782597979,1.260890568263164,0.8654560782218303,0.1822955525153277,1.15259558154567,0.5656388407519513,0.8078048287718862,0.2418690034561596,1.032751180250138,0.2938313574661136,0.7128610647843003,0.3657442425665571,1.494798010885838,0.4636409951895434,0.5286229203228713,0.2271402712152553,1.295799697135998,0.5696839167822056,818.7545787545788,799.8168498168499,33.84615384615385,726.8864468864469,752.6739926739926,-0.441528,0.225830,0.874023,14.258270,3.072968,-2.302856,1,2,1,1,2,45.000000
2021-11-11 01:10:36.729,,,,,,,,,,,,,,,,,,,,,,,,,,,,,,,,,,,,,,/muse/elements/jaw_clench
2021-11-11 01:10:36.821,,,,,,,,,,,,,,,,,,,,,,,,,,,,,,,,,,,,,,/muse/elements/blink
2021-11-11 01:10:37.513,,,,,,,,,,,,,,,,,,,,,,,,,,,,,,,,,,,,,,/muse/elements/jaw_clench
2021-11-11 01:10:37.622,1.061866768221809,0.5691437848065555,0.7299530782597979,1.260890568263164,0.8654560782218303,0.2445489026047214,1.15259558154567,0.5656388407519513,0.8078048287718862,0.342814776025501,1.032751180250138,0.2938313574661136,0.7128610647843003,0.3923570524235594,1.494798010885838,0.4636409951895434,0.5286229203228713,0.05341467850253497,1.295799697135998,0.5696839167822056,709.9633699633699,786.5201465201466,0,793.7728937728938,778.8644688644689,-0.453125,0.250061,0.889404,6.908569,1.682281,-3.192596,1,2,1,1,2,45.000000
2021-11-11 01:10:38.622,1.061866768221809,0.9286106373020673,0.7299530782597979,1.260890568263164,0.8654560782218303,0.2006636201394124,1.15259558154567,0.5656388407519513,0.8078048287718862,0.2142901810937775,1.032751180250138,0.2938313574661136,0.7128610647843003,0.2704010522413321,1.494798010885838,0.4636409951895434,0.5286229203228713,-0.1038386631879133,1.295799697135998,0.5696839167822056,701.0989010989011,809.8901098901099,1623.809523809524,753.4798534798535,688.2051282051282,-0.532043,0.304382,0.823853,10.445099,66.169739,-8.418884,1,2,1,1,2,45.000000
2021-11-11 01:10:39.065,,,,,,,,,,,,,,,,,,,,,,,,,,,,,,,,,,,,,,/muse/elements/blink
2021-11-11 01:10:39.434,,,,,,,,,,,,,,,,,,,,,,,,,,,,,,,,,,,,,,/muse/elements/blink
2021-11-11 01:10:39.622,1.061866768221809,1.568085834646427,0.7299530782597979,1.260890568263164,0.8654560782218303,0.4708288083574863,1.15259558154567,0.5656388407519513,0.8078048287718862,0.2270807298298735,1.032751180250138,0.2938313574661136,0.7128610647843003,0.29958564631586,1.494798010885838,0.4636409951895434,0.5286229203228713,-0.1427632160915931,1.295799697135998,0.5696839167822056,768.7912087912088,774.4322344322345,1623.809523809524,777.6556776556777,996.8498168498169,-0.395752,0.306213,0.869263,6.467438,-1.801910,1.682281,1,2,1,1,2,45.000000
2021-11-11 01:10:40.140,,,,,,,,,,,,,,,,,,,,,,,,,,,,,,,,,,,,,,/muse/elements/jaw_clench
2021-11-11 01:10:40.626,1.061866768221809,0.857371231525092,-0.9140387386202787,1.266913197134472,0.8654560782218303,0.2407177574173414,-1.279407645568766,1.0534578850015,0.8078048287718862,0.2041428080966845,-0.7385724713832826,1.092568547210343,0.7128610647843003,0.2390177823550108,-1.101226281407423,0.6920356867440478,0.5286229203228713,0.1220228582444221,-1.317776345675469,0.6043818716874241,670.8791208791209,785.3113553113553,316.7032967032967,756.3003663003664,633.0036630036631,-0.342346,0.273865,0.833069,-17.263947,-10.878754,-7.536621,1,1,1,1,1,45.000000
2021-11-11 01:10:40.970,,,,,,,,,,,,,,,,,,,,,,,,,,,,,,,,,,,,,,/muse/elements/blink
2021-11-11 01:10:41.622,1.061866768221809,0.5969094767219264,-0.6156118664518213,1.336057191500367,0.8654560782218303,0.2108593092509905,-0.9639899931665766,1.045145254030206,0.8078048287718862,0.3460954695949167,-0.7385724713832826,1.09574604738456,0.7128610647843003,0.3610630946429449,-0.8775643893221778,0.6625109570936778,0.5286229203228713,0.1905348375202046,-1.138334630012677,0.570508044013906,649.5238095238095,808.6813186813187,0,864.2857142857143,751.8681318681319,-0.258057,0.172241,0.907654,11.805878,97.691956,-39.716797,1,1,1,4,1,45.000000
2021-11-11 01:10:41.683,,,,,,,,,,,,,,,,,,,,,,,,,,,,,,,,,,,,,,/muse/elements/blink
2021-11-11 01:10:42.203,,,,,,,,,,,,,,,,,,,,,,,,,,,,,,,,,,,,,,/muse/elements/jaw_clench
2021-11-11 01:10:42.293,,,,,,,,,,,,,,,,,,,,,,,,,,,,,,,,,,,,,,/muse/elements/blink
2021-11-11 01:10:42.384,,,,,,,,,,,,,,,,,,,,,,,,,,,,,,,,,,,,,,/muse/elements/jaw_clench
2021-11-11 01:10:42.622,1.061866768221809,1.412346307627839,-0.6156118664518213,1.430953403712725,0.8654560782218303,0.6138323398572251,-0.9639899931665766,1.073285197009473,0.8078048287718862,0.6253480800513557,-0.7385724713832826,0.9134901637044208,0.7128610647843003,0.4656646928106136,-0.8775643893221778,0.6318749736378771,0.5286229203228713,0.07279394817284669,-1.138334630012677,0.5852055968394703,718.4249084249085,780.8791208791209,0,809.4871794871796,784.5054945054945,-0.248230,0.208008,0.951843,0.523376,-4.859924,4.254303,1,1,1,1,1,45.000000
2021-11-11 01:10:43.622,1.061866768221809,1.560178757300329,0.1748954085021903,1.430953403712725,0.8654560782218303,0.5529750366191131,-0.3685365214117924,1.073285197009473,0.8078048287718862,0.5890823525570267,0.04668034715838345,0.9134901637044208,0.7128610647843003,0.4609692152948035,-0.1367136945415983,0.6318749736378771,0.5286229203228713,-0.1346508377700076,-0.3877526201538156,0.5852055968394703,625.3479853479854,786.5201465201466,0,774.8351648351648,644.6886446886447,-0.265869,0.174377,0.976929,2.549591,-8.957214,-0.807495,1,2,1,1,2,45.000000
2021-11-11 01:10:44.625,0.786258486921115,0.1060638055832039,0.4078993083665708,0.7886144870953321,0.4448352313735552,-0.08800512446680805,0.2946537644562129,0.4015900531093218,0.9629392776050663,0.2300055747858207,0.5320207151104639,0.7616243288164651,0.6757464738425379,0.4929683708033159,0.3530606571014168,0.7024076136088221,0.6705171598749504,-0.08056961973322094,0.2148150778635462,0.3906390365240782,548.3882783882784,803.040293040293,0,683.3699633699634,660.4029304029305,-0.231689,0.189270,0.954041,4.613190,-2.803802,-1.667328,1,1,1,1,1,45.000000
2021-11-11 01:10:44.733,,,,,,,,,,,,,,,,,,,,,,,,,,,,,,,,,,,,,,/muse/elements/blink
2021-11-11 01:10:45.622,0.786258486921115,0.1281921668573196,0.5169685027956679,0.7886144870953321,0.4448352313735552,-0.04826484784455548,0.4707319862590977,0.4015900531093218,0.9629392776050663,0.2394711614377092,0.594472680745102,0.7616243288164651,0.6757464738425379,0.4507040486481711,0.4338878478413534,0.7024076136088221,0.6705171598749504,-0.07679863357771896,0.2699499531570842,0.3906390365240782,628.5714285714286,786.9230769230769,0,778.4615384615385,721.2454212454213,-0.230042,0.191101,0.960938,3.850555,-3.431854,-1.330872,1,1,1,1,1,45.000000
2021-11-11 01:10:46.622,0.786258486921115,0.1281921668573196,0.5169685027956679,0.7886144870953321,0.4448352313735552,-0.04826484784455548,0.4707319862590977,0.4015900531093218,0.9629392776050663,0.2394711614377092,0.594472680745102,0.7616243288164651,0.6757464738425379,0.4507040486481711,0.4338878478413534,0.7024076136088221,0.6705171598749504,-0.07679863357771896,0.2699499531570842,0.3906390365240782,628.5714285714286,786.9230769230769,0,778.4615384615385,721.2454212454213,-0.230042,0.191101,0.960938,3.850555,-3.431854,-1.330872,1,1,1,1,1,45.000000
2021-11-11 01:10:56.621,0.786258486921115,0.1281921668573196,0.5169685027956679,0.7886144870953321,0.4448352313735552,-0.04826484784455548,0.4707319862590977,0.4015900531093218,0.9629392776050663,0.2394711614377092,0.594472680745102,0.7616243288164651,0.6757464738425379,0.4507040486481711,0.4338878478413534,0.7024076136088221,0.6705171598749504,-0.07679863357771896,0.2699499531570842,0.3906390365240782,713.992673992674,824.3956043956044,0,787.3260073260074,719.6336996336996,-0.029297,0.075012,1.006409,4.448700,-5.435638,-0.710297,1,1,1,1,1,45.000000
2021-11-11 01:10:57.627,0,0,0,0,0,0,0,0,0,0,0,0,0,0,0,0,0,0,0,0,671.2820512820513,745.0183150183151,0,770,736.5567765567765,-0.088867,0.126221,0.996948,9.233856,1.629944,10.916138,0,4,4,4,4,30.000000
2021-11-11 01:10:58.493,,,,,,,,,,,,,,,,,,,,,,,,,,,,,,,,,,,,,,/muse/elements/jaw_clench
2021-11-11 01:10:58.621,0,0,0,0,0,0,0,0,0,0,0,0,0,0,0,0,0,0,0,0,633.8095238095239,663.6263736263736,0,706.3369963369963,733.7362637362637,-0.176880,0.153870,0.982300,-1.891632,-6.527252,29.361420,1,2,2,1,2,30.000000
2021-11-11 01:10:59.625,0,0,0,0,0,0,0,0,0,0,0,0,0,0,0,0,0,0,0,0,609.2307692307693,696.6666666666667,0,768.7912087912088,815.5311355311355,-0.094360,0.156555,1.007019,9.188995,-3.708496,-30.378265,1,2,1,1,2,30.000000
2021-11-11 01:11:00.138,,,,,,,,,,,,,,,,,,,,,,,,,,,,,,,,,,,,,,/muse/elements/blink
2021-11-11 01:11:00.414,,,,,,,,,,,,,,,,,,,,,,,,,,,,,,,,,,,,,,/muse/elements/jaw_clench
2021-11-11 01:11:00.625,0,1.44646597564914,0,0,0,0.7128771750655829,0,0,0,0.3533402997398714,0,0,0,0.711352409780693,0,0,0,0.2790917072480594,0,0,682.967032967033,737.3626373626374,0,805.0549450549451,771.2087912087912,-0.231384,0.181763,0.970764,11.633911,-16.591034,-8.845062,1,2,1,1,2,30.000000
2021-11-11 01:11:01.621,0,1.03294424549193,0,0,0,0.7332077411967306,0,0,0,0.5751532202090045,0,0,0,0.5249192660414422,0,0,0,0.1835229829171892,0,0,668.0586080586081,757.5091575091575,0,665.6410256410256,692.2344322344322,-0.203857,0.023132,0.933228,14.430237,-6.026306,-84.600067,1,2,1,1,2,30.000000
2021-11-11 01:11:01.785,,,,,,,,,,,,,,,,,,,,,,,,,,,,,,,,,,,,,,/muse/elements/blink
2021-11-11 01:11:02.621,0,1.368492272048722,0,0,0,0.4229438388948979,0,0,0,0.9249667302116902,0,0,0,0.4797903666827142,0,0,0,0.2200022682765242,0,0,776.4468864468864,781.6849816849817,1623.809523809524,746.2271062271062,750.6593406593407,-0.208374,0.231323,0.957397,-3.491669,7.095490,9.428253,1,2,1,1,2,30.000000
2021-11-11 01:11:02.760,,,,,,,,,,,,,,,,,,,,,,,,,,,,,,,,,,,,,,/muse/elements/blink
2021-11-11 01:11:03.097,,,,,,,,,,,,,,,,,,,,,,,,,,,,,,,,,,,,,,/muse/elements/blink
2021-11-11 01:11:03.278,,,,,,,,,,,,,,,,,,,,,,,,,,,,,,,,,,,,,,/muse/elements/jaw_clench
2021-11-11 01:11:03.621,0,2.005209479011112,0,0,0,0.7032482823489771,0,0,0,1.018225818908143,0,0,0,0.6107396757993957,0,0,0,0.5969436545183413,0,0,576.5934065934066,871.5384615384615,1623.809523809524,744.2124542124542,825.2014652014652,-0.432983,0.180176,0.818298,16.920013,31.596985,-11.379700,1,2,1,4,2,30.000000
2021-11-11 01:11:03.799,,,,,,,,,,,,,,,,,,,,,,,,,,,,,,,,,,,,,,/muse/elements/blink
2021-11-11 01:11:03.892,,,,,,,,,,,,,,,,,,,,,,,,,,,,,,,,,,,,,,/muse/elements/jaw_clench
2021-11-11 01:11:04.204,,,,,,,,,,,,,,,,,,,,,,,,,,,,,,,,,,,,,,/muse/elements/blink
2021-11-11 01:11:04.493,,,,,,,,,,,,,,,,,,,,,,,,,,,,,,,,,,,,,,/muse/elements/blink
2021-11-11 01:11:04.621,0,2.173888082983678,0,0,0,0.8141753980900144,0,0,0,1.001983578719498,0,0,0,0.645932193413055,0,0,0,0.7053003052417124,0,0,719.6336996336996,770.8058608058608,1623.809523809524,799.0109890109891,516.1538461538462,-0.219482,0.128296,0.977905,-6.265564,-14.796600,2.130890,1,2,1,1,2,30.000000
2021-11-11 01:11:04.827,,,,,,,,,,,,,,,,,,,,,,,,,,,,,,,,,,,,,,/muse/elements/blink
2021-11-11 01:11:04.920,,,,,,,,,,,,,,,,,,,,,,,,,,,,,,,,,,,,,,/muse/elements/jaw_clench
2021-11-11 01:11:05.010,,,,,,,,,,,,,,,,,,,,,,,,,,,,,,,,,,,,,,/muse/elements/blink
2021-11-11 01:11:05.519,,,,,,,,,,,,,,,,,,,,,,,,,,,,,,,,,,,,,,/muse/elements/blink
2021-11-11 01:11:05.621,0,1.494363346271141,-2.018753465953127,0,0,0.6261322158507796,-2.49013929322961,0,0,0.4931770323990419,-1.736682379349208,0,0,0.3231753130987191,-2.015965072446463,0,0,0.3003521848371402,-2.160232175225629,0,778.4615384615385,762.7472527472528,506.4835164835165,814.3223443223443,683.3699633699634,-0.245728,0.057251,0.994141,4.074860,-17.899475,-12.964783,1,2,1,1,2,30.000000
2021-11-11 01:11:06.048,,,,,,,,,,,,,,,,,,,,,,,,,,,,,,,,,,,,,,/muse/elements/blink
2021-11-11 01:11:06.517,,,,,,,,,,,,,,,,,,,,,,,,,,,,,,,,,,,,,,/muse/elements/jaw_clench
2021-11-11 01:11:06.621,0,1.313826204641563,-2.018753465953127,0,0,0.7162905142464909,-2.49013929322961,0,0,0.5342839348314213,-1.736682379349208,0,0,0.2974659829914081,-2.015965072446463,0,0,0.1855725493194222,-2.160232175225629,0,89.45054945054946,1623.809523809524,1623.809523809524,788.9377289377289,938.8278388278388,-0.345642,0.165894,0.901367,34.864349,19.282684,-10.325470,1,2,1,1,2,30.000000
2021-11-11 01:11:07.026,,,,,,,,,,,,,,,,,,,,,,,,,,,,,,,,,,,,,,/muse/elements/blink
2021-11-11 01:11:07.359,,,,,,,,,,,,,,,,,,,,,,,,,,,,,,,,,,,,,,/muse/elements/jaw_clench
